SpectraSuite Data File
++++++++++++++++++++++++++++++++++++
Date: Fri Jan 24 16:59:32 MST 2020
User: Molly
Dark Spectrum Present: Yes
Reference Spectrum Present: Yes
Number of Sampled Component Spectra: 1
Spectrometers: USB4E03280
Integration Time (usec): 32000 (USB4E03280)
Spectra Averaged: 1 (USB4E03280)
Boxcar Smoothing: 0 (USB4E03280)
Correct for Electrical Dark: No (USB4E03280)
Strobe/Lamp Enabled: Yes (USB4E03280)
Correct for Detector Non-linearity: No (USB4E03280)
Correct for Stray Light: No (USB4E03280)
Number of Pixels in Processed Spectrum: 3648
>>>>>Begin Processed Spectral Data<<<<<
177.66	1159.15
177.88	1159.15
178.10	1159.15
178.32	1212.40
178.54	1316.84
178.76	1200.11
178.98	1220.59
179.19	1202.16
179.41	1228.78
179.63	1234.93
179.85	1157.10
180.07	1257.45
180.29	1167.34
180.51	1226.73
180.72	1273.84
180.94	1220.59
181.16	1267.69
181.38	1253.36
181.60	1277.93
181.82	1204.21
182.04	1253.36
182.25	1200.11
182.47	1265.64
182.69	1255.40
182.91	1226.73
183.13	1286.12
183.35	1228.78
183.56	1277.93
183.78	1243.12
184.00	1306.60
184.22	1267.69
184.44	1224.69
184.66	1318.89
184.87	1224.69
185.09	1204.21
185.31	1232.88
185.53	1277.93
185.75	1157.10
185.97	1263.60
186.18	1181.68
186.40	1257.45
186.62	1288.17
186.84	1224.69
187.06	1216.49
187.28	1333.23
187.49	1243.12
187.71	1267.69
187.93	1333.23
188.15	1257.45
188.37	1181.68
188.59	1177.58
188.80	1230.83
189.02	1304.56
189.24	1273.84
189.46	1155.05
189.68	1214.45
189.89	1206.25
190.11	1214.45
190.33	1257.45
190.55	1251.31
190.77	1214.45
190.98	1224.69
191.20	1232.88
191.42	1236.97
191.64	1245.16
191.86	1202.16
192.07	1298.41
192.29	1249.26
192.51	1220.59
192.73	1220.59
192.95	1300.46
193.16	1265.64
193.38	1228.78
193.60	1292.27
193.82	1232.88
194.04	1232.88
194.25	1269.74
194.47	1241.07
194.69	1241.07
194.91	1220.59
195.13	1173.49
195.34	1226.73
195.56	1208.30
195.78	1181.68
196.00	1202.16
196.22	1226.73
196.43	1249.26
196.65	1220.59
196.87	1234.93
197.09	1241.07
197.30	1243.12
197.52	1159.15
197.74	1177.58
197.96	1251.31
198.18	1224.69
198.39	1202.16
198.61	1241.07
198.83	1241.07
199.05	1163.25
199.26	1200.11
199.48	1204.21
199.70	1146.86
199.92	1241.07
200.13	1251.31
200.35	1273.84
200.57	1216.49
200.79	1290.22
201.00	1245.16
201.22	1296.36
201.44	1216.49
201.66	1232.88
201.88	1277.93
202.09	1179.63
202.31	1198.06
202.53	1284.08
202.75	1236.97
202.96	1222.64
203.18	1173.49
203.40	1212.40
203.62	1144.81
203.83	1282.03
204.05	1220.59
204.27	1236.97
204.49	1191.92
204.70	1218.54
204.92	1206.25
205.14	1200.11
205.35	1247.21
205.57	1275.88
205.79	1202.16
206.01	1210.35
206.22	1136.62
206.44	1196.01
206.66	1193.97
206.88	1239.02
207.09	1249.26
207.31	1263.60
207.53	1228.78
207.75	1163.25
207.96	1253.36
208.18	1269.74
208.40	1206.25
208.61	1331.18
208.83	1243.12
209.05	1275.88
209.27	1251.31
209.48	1284.08
209.70	1306.60
209.92	1275.88
210.14	1234.93
210.35	1228.78
210.57	1259.50
210.79	1222.64
211.00	1236.97
211.22	1247.21
211.44	1251.31
211.66	1198.06
211.87	1171.44
212.09	1251.31
212.31	1236.97
212.52	1165.29
212.74	1208.30
212.96	1218.54
213.17	1220.59
213.39	1265.64
213.61	1212.40
213.83	1220.59
214.04	1208.30
214.26	1214.45
214.48	1202.16
214.69	1261.55
214.91	1130.48
215.13	1245.16
215.34	1255.40
215.56	1177.58
215.78	1232.88
216.00	1253.36
216.21	1222.64
216.43	1236.97
216.65	1193.97
216.86	1290.22
217.08	1247.21
217.30	1239.02
217.51	1181.68
217.73	1251.31
217.95	1226.73
218.16	1292.27
218.38	1245.16
218.60	1241.07
218.81	1277.93
219.03	1259.50
219.25	1286.12
219.46	1282.03
219.68	1216.49
219.90	1286.12
220.11	1208.30
220.33	1288.17
220.55	1230.83
220.76	1228.78
220.98	1243.12
221.20	1300.46
221.41	1302.51
221.63	1165.29
221.85	1224.69
222.06	1265.64
222.28	1253.36
222.50	1200.11
222.71	1202.16
222.93	1259.50
223.15	1257.45
223.36	1228.78
223.58	1191.92
223.80	1255.40
224.01	1181.68
224.23	1322.99
224.45	1196.01
224.66	1161.20
224.88	1226.73
225.10	1230.83
225.31	1220.59
225.53	1249.26
225.75	1273.84
225.96	1202.16
226.18	1241.07
226.39	1173.49
226.61	1218.54
226.83	1300.46
227.04	1259.50
227.26	1304.56
227.48	1277.93
227.69	1243.12
227.91	1245.16
228.13	1218.54
228.34	1210.35
228.56	1236.97
228.77	1251.31
228.99	1185.77
229.21	1269.74
229.42	1150.96
229.64	1212.40
229.86	1243.12
230.07	1257.45
230.29	1216.49
230.50	1320.94
230.72	1191.92
230.94	1236.97
231.15	1220.59
231.37	1331.18
231.58	1204.21
231.80	1204.21
232.02	1261.55
232.23	1214.45
232.45	1206.25
232.67	1234.93
232.88	1228.78
233.10	1191.92
233.31	1265.64
233.53	1273.84
233.75	1185.77
233.96	1247.21
234.18	1212.40
234.39	1263.60
234.61	1171.44
234.83	1204.21
235.04	1185.77
235.26	1241.07
235.47	1165.29
235.69	1277.93
235.91	1275.88
236.12	1167.34
236.34	1282.03
236.55	1198.06
236.77	1308.65
236.99	1198.06
237.20	1251.31
237.42	1273.84
237.63	1128.43
237.85	1273.84
238.06	1234.93
238.28	1232.88
238.50	1273.84
238.71	1157.10
238.93	1239.02
239.14	1273.84
239.36	1189.87
239.58	1232.88
239.79	1206.25
240.01	1216.49
240.22	1196.01
240.44	1267.69
240.65	1226.73
240.87	1265.64
241.09	1208.30
241.30	1187.82
241.52	1216.49
241.73	1271.79
241.95	1253.36
242.16	1228.78
242.38	1183.73
242.59	1247.21
242.81	1257.45
243.03	1277.93
243.24	1230.83
243.46	1183.73
243.67	1257.45
243.89	1202.16
244.10	1261.55
244.32	1241.07
244.53	1183.73
244.75	1198.06
244.97	1230.83
245.18	1351.66
245.40	1189.87
245.61	1230.83
245.83	1210.35
246.04	1263.60
246.26	1300.46
246.47	1220.59
246.69	1165.29
246.90	1232.88
247.12	1286.12
247.34	1253.36
247.55	1179.63
247.77	1230.83
247.98	1216.49
248.20	1273.84
248.41	1222.64
248.63	1239.02
248.84	1277.93
249.06	1239.02
249.27	1263.60
249.49	1185.77
249.70	1239.02
249.92	1222.64
250.13	1245.16
250.35	1181.68
250.56	1302.51
250.78	1265.64
251.00	1210.35
251.21	1257.45
251.43	1236.97
251.64	1187.82
251.86	1263.60
252.07	1187.82
252.29	1214.45
252.50	1255.40
252.72	1202.16
252.93	1200.11
253.15	1181.68
253.36	1282.03
253.58	1310.70
253.79	1239.02
254.01	1210.35
254.22	1210.35
254.44	1251.31
254.65	1247.21
254.87	1290.22
255.08	1245.16
255.30	1212.40
255.51	1177.58
255.73	1206.25
255.94	1275.88
256.16	1234.93
256.37	1218.54
256.59	1251.31
256.80	1243.12
257.02	1187.82
257.23	1212.40
257.45	1296.36
257.66	1271.79
257.88	1206.25
258.09	1273.84
258.31	1247.21
258.52	1198.06
258.74	1284.08
258.95	1228.78
259.16	1222.64
259.38	1261.55
259.59	1292.27
259.81	1243.12
260.02	1239.02
260.24	1247.21
260.45	1226.73
260.67	1261.55
260.88	1241.07
261.10	1157.10
261.31	1292.27
261.53	1198.06
261.74	1232.88
261.96	1208.30
262.17	1249.26
262.39	1181.68
262.60	1243.12
262.81	1206.25
263.03	1230.83
263.24	1226.73
263.46	1263.60
263.67	1220.59
263.89	1228.78
264.10	1230.83
264.32	1239.02
264.53	1247.21
264.75	1288.17
264.96	1220.59
265.17	1191.92
265.39	1243.12
265.60	1247.21
265.82	1171.44
266.03	1228.78
266.25	1204.21
266.46	1228.78
266.68	1263.60
266.89	1263.60
267.10	1228.78
267.32	1228.78
267.53	1251.31
267.75	1200.11
267.96	1196.01
268.18	1255.40
268.39	1206.25
268.61	1300.46
268.82	1200.11
269.03	1204.21
269.25	1202.16
269.46	1196.01
269.68	1224.69
269.89	1300.46
270.11	1220.59
270.32	1284.08
270.53	1245.16
270.75	1286.12
270.96	1269.74
271.18	1179.63
271.39	1222.64
271.60	1230.83
271.82	1222.64
272.03	1249.26
272.25	1267.69
272.46	1241.07
272.68	1241.07
272.89	1232.88
273.10	1200.11
273.32	1253.36
273.53	1236.97
273.75	1253.36
273.96	1241.07
274.17	1236.97
274.39	1208.30
274.60	1222.64
274.82	1208.30
275.03	1292.27
275.24	1257.45
275.46	1251.31
275.67	1290.22
275.89	1302.51
276.10	1214.45
276.31	1288.17
276.53	1236.97
276.74	1284.08
276.96	1230.83
277.17	1210.35
277.38	1241.07
277.60	1296.36
277.81	1216.49
278.02	1224.69
278.24	1218.54
278.45	1212.40
278.67	1265.64
278.88	1316.84
279.09	1204.21
279.31	1273.84
279.52	1214.45
279.73	1222.64
279.95	1171.44
280.16	1226.73
280.38	1249.26
280.59	1228.78
280.80	1196.01
281.02	1191.92
281.23	1218.54
281.44	1218.54
281.66	1232.88
281.87	1222.64
282.09	1251.31
282.30	1146.86
282.51	1206.25
282.73	1232.88
282.94	1234.93
283.15	1226.73
283.37	1275.88
283.58	1286.12
283.79	1232.88
284.01	1167.34
284.22	1290.22
284.43	1198.06
284.65	1220.59
284.86	1241.07
285.07	1212.40
285.29	1230.83
285.50	1255.40
285.72	1202.16
285.93	1206.25
286.14	1220.59
286.36	1198.06
286.57	1212.40
286.78	1228.78
287.00	1245.16
287.21	1222.64
287.42	1261.55
287.64	1187.82
287.85	1212.40
288.06	1236.97
288.28	1171.44
288.49	1251.31
288.70	1232.88
288.92	1269.74
289.13	1251.31
289.34	1202.16
289.56	1232.88
289.77	1206.25
289.98	1294.32
290.19	1302.51
290.41	1247.21
290.62	1212.40
290.83	1214.45
291.05	1245.16
291.26	1245.16
291.47	1255.40
291.69	1339.37
291.90	1208.30
292.11	1220.59
292.33	1331.18
292.54	1273.84
292.75	1216.49
292.97	1222.64
293.18	1183.73
293.39	1214.45
293.60	1206.25
293.82	1206.25
294.03	1241.07
294.24	1226.73
294.46	1204.21
294.67	1179.63
294.88	1228.78
295.10	1222.64
295.31	1216.49
295.52	1198.06
295.73	1183.73
295.95	1210.35
296.16	1271.79
296.37	1245.16
296.59	1153.01
296.80	1191.92
297.01	1234.93
297.22	1210.35
297.44	1259.50
297.65	1202.16
297.86	1171.44
298.08	1216.49
298.29	1175.53
298.50	1247.21
298.71	1247.21
298.93	1241.07
299.14	1218.54
299.35	1282.03
299.56	1275.88
299.78	1226.73
299.99	1243.12
300.20	1257.45
300.42	1214.45
300.63	1284.08
300.84	1245.16
301.05	1171.44
301.27	1212.40
301.48	1234.93
301.69	1322.99
301.90	1196.01
302.12	1230.83
302.33	1171.44
302.54	1210.35
302.75	1249.26
302.97	1210.35
303.18	1224.69
303.39	1241.07
303.60	1234.93
303.82	1273.84
304.03	1251.31
304.24	1273.84
304.45	1232.88
304.67	1200.11
304.88	1279.98
305.09	1208.30
305.30	1232.88
305.52	1224.69
305.73	1275.88
305.94	1198.06
306.15	1265.64
306.37	1284.08
306.58	1251.31
306.79	1198.06
307.00	1263.60
307.22	1249.26
307.43	1245.16
307.64	1173.49
307.85	1255.40
308.06	1241.07
308.28	1218.54
308.49	1196.01
308.70	1228.78
308.91	1183.73
309.13	1275.88
309.34	1241.07
309.55	1249.26
309.76	1314.80
309.97	1216.49
310.19	1236.97
310.40	1267.69
310.61	1218.54
310.82	1243.12
311.04	1169.39
311.25	1267.69
311.46	1198.06
311.67	1216.49
311.88	1257.45
312.10	1269.74
312.31	1226.73
312.52	1196.01
312.73	1204.21
312.94	1169.39
313.16	1226.73
313.37	1148.91
313.58	1218.54
313.79	1255.40
314.00	1257.45
314.22	1249.26
314.43	1204.21
314.64	1198.06
314.85	1224.69
315.06	1234.93
315.27	1247.21
315.49	1155.05
315.70	1265.64
315.91	1179.63
316.12	1208.30
316.33	1200.11
316.55	1222.64
316.76	1284.08
316.97	1230.83
317.18	1204.21
317.39	1253.36
317.60	1255.40
317.82	1208.30
318.03	1269.74
318.24	1165.29
318.45	1247.21
318.66	1314.80
318.88	1214.45
319.09	1259.50
319.30	1245.16
319.51	1234.93
319.72	1198.06
319.93	1136.62
320.15	1269.74
320.36	1232.88
320.57	1239.02
320.78	1249.26
320.99	1282.03
321.20	1257.45
321.41	1230.83
321.63	1175.53
321.84	1202.16
322.05	1230.83
322.26	1261.55
322.47	1226.73
322.68	1251.31
322.90	1306.60
323.11	1214.45
323.32	1202.16
323.53	1255.40
323.74	1267.69
323.95	1228.78
324.16	1269.74
324.38	1255.40
324.59	1279.98
324.80	1171.44
325.01	1187.82
325.22	1214.45
325.43	1200.11
325.64	1265.64
325.85	1198.06
326.07	1249.26
326.28	1202.16
326.49	1185.77
326.70	1202.16
326.91	1228.78
327.12	1193.97
327.33	1214.45
327.54	1187.82
327.76	1208.30
327.97	1228.78
328.18	1257.45
328.39	1204.21
328.60	1273.84
328.81	1273.84
329.02	1204.21
329.23	1265.64
329.45	1275.88
329.66	1222.64
329.87	1212.40
330.08	1220.59
330.29	1189.87
330.50	1284.08
330.71	1230.83
330.92	1261.55
331.13	1206.25
331.34	1200.11
331.56	1257.45
331.77	1234.93
331.98	1257.45
332.19	1239.02
332.40	1196.01
332.61	1275.88
332.82	1236.97
333.03	1253.36
333.24	1173.49
333.45	1234.93
333.67	1239.02
333.88	1185.77
334.09	1183.73
334.30	1271.79
334.51	1241.07
334.72	1161.20
334.93	1216.49
335.14	1226.73
335.35	1220.59
335.56	1210.35
335.77	1243.12
335.98	1282.03
336.19	1193.97
336.41	1263.60
336.62	1245.16
336.83	1220.59
337.04	1263.60
337.25	1210.35
337.46	1226.73
337.67	1259.50
337.88	1236.97
338.09	1249.26
338.30	1255.40
338.51	1245.16
338.72	1247.21
338.93	1241.07
339.14	1214.45
339.35	1206.25
339.57	1202.16
339.78	1241.07
339.99	1181.68
340.20	1187.82
340.41	1284.08
340.62	1247.21
340.83	1275.88
341.04	1126.38
341.25	1181.68
341.46	1198.06
341.67	1206.25
341.88	1267.69
342.09	1257.45
342.30	1210.35
342.51	1159.15
342.72	1236.97
342.93	1271.79
343.14	1183.73
343.35	1234.93
343.56	1286.12
343.77	1277.93
343.98	1220.59
344.19	1269.74
344.41	1251.31
344.62	1265.64
344.83	1232.88
345.04	1308.65
345.25	1159.15
345.46	1247.21
345.67	1239.02
345.88	1191.92
346.09	1200.11
346.30	1257.45
346.51	1257.45
346.72	1204.21
346.93	1259.50
347.14	1318.89
347.35	1241.07
347.56	1206.25
347.77	1210.35
347.98	1157.10
348.19	1214.45
348.40	1134.57
348.61	1214.45
348.82	1236.97
349.03	1165.29
349.24	1224.69
349.45	1263.60
349.66	1282.03
349.87	1198.06
350.08	1196.01
350.29	1239.02
350.50	1198.06
350.71	1263.60
350.92	1239.02
351.13	1265.64
351.34	1224.69
351.55	1204.21
351.76	1290.22
351.97	1255.40
352.18	1257.45
352.39	1230.83
352.60	1189.87
352.81	1216.49
353.02	1306.60
353.23	1177.58
353.44	1271.79
353.65	1216.49
353.86	1308.65
354.07	1243.12
354.28	1314.80
354.49	1236.97
354.70	1200.11
354.90	1220.59
355.11	1189.87
355.32	1243.12
355.53	1239.02
355.74	1165.29
355.95	1261.55
356.16	1208.30
356.37	1234.93
356.58	1144.81
356.79	1253.36
357.00	1171.44
357.21	1206.25
357.42	1171.44
357.63	1249.26
357.84	1277.93
358.05	1214.45
358.26	1230.83
358.47	1288.17
358.68	1218.54
358.89	1294.32
359.10	1222.64
359.31	1177.58
359.52	1198.06
359.73	1214.45
359.93	1189.87
360.14	1236.97
360.35	1239.02
360.56	1269.74
360.77	1206.25
360.98	1185.77
361.19	1236.97
361.40	1269.74
361.61	1241.07
361.82	1236.97
362.03	1286.12
362.24	1216.49
362.45	1198.06
362.66	1314.80
362.87	1171.44
363.07	1220.59
363.28	1302.51
363.49	1153.01
363.70	1239.02
363.91	1220.59
364.12	1177.58
364.33	1196.01
364.54	1236.97
364.75	1239.02
364.96	1216.49
365.17	1208.30
365.38	1142.77
365.58	1181.68
365.79	1210.35
366.00	1206.25
366.21	1183.73
366.42	1189.87
366.63	1218.54
366.84	1234.93
367.05	1210.35
367.26	1271.79
367.47	1204.21
367.67	1232.88
367.88	1212.40
368.09	1249.26
368.30	1214.45
368.51	1318.89
368.72	1273.84
368.93	1206.25
369.14	1226.73
369.35	1275.88
369.56	1259.50
369.76	1222.64
369.97	1232.88
370.18	1236.97
370.39	1228.78
370.60	1249.26
370.81	1208.30
371.02	1230.83
371.23	1243.12
371.43	1148.91
371.64	1193.97
371.85	1243.12
372.06	1124.33
372.27	1234.93
372.48	1224.69
372.69	1275.88
372.90	1216.49
373.10	1220.59
373.31	1230.83
373.52	1189.87
373.73	1196.01
373.94	1263.60
374.15	1253.36
374.36	1232.88
374.56	1245.16
374.77	1224.69
374.98	1214.45
375.19	1216.49
375.40	1220.59
375.61	1247.21
375.82	1232.88
376.02	1146.86
376.23	1224.69
376.44	1196.01
376.65	1261.55
376.86	1247.21
377.07	1153.01
377.28	1257.45
377.48	1200.11
377.69	1226.73
377.90	1212.40
378.11	1245.16
378.32	1200.11
378.53	1261.55
378.73	1181.68
378.94	1150.96
379.15	1218.54
379.36	1228.78
379.57	1236.97
379.78	1167.34
379.98	1208.30
380.19	1208.30
380.40	1204.21
380.61	1206.25
380.82	1202.16
381.03	1310.70
381.23	1263.60
381.44	1255.40
381.65	1198.06
381.86	1169.39
382.07	1236.97
382.27	1206.25
382.48	1216.49
382.69	1234.93
382.90	1257.45
383.11	1239.02
383.32	1171.44
383.52	1243.12
383.73	1218.54
383.94	1208.30
384.15	1167.34
384.36	1153.01
384.56	1290.22
384.77	1130.48
384.98	1255.40
385.19	1251.31
385.40	1187.82
385.60	1228.78
385.81	1204.21
386.02	1230.83
386.23	1185.77
386.43	1224.69
386.64	1267.69
386.85	1163.25
387.06	1167.34
387.27	1198.06
387.47	1198.06
387.68	1284.08
387.89	1284.08
388.10	1161.20
388.31	1273.84
388.51	1261.55
388.72	1200.11
388.93	1226.73
389.14	1275.88
389.34	1232.88
389.55	1343.47
389.76	1224.69
389.97	1263.60
390.18	1286.12
390.38	1245.16
390.59	1208.30
390.80	1234.93
391.01	1284.08
391.21	1277.93
391.42	1245.16
391.63	1277.93
391.84	1214.45
392.04	1255.40
392.25	1275.88
392.46	1189.87
392.67	1253.36
392.87	1191.92
393.08	1236.97
393.29	1202.16
393.50	1228.78
393.70	1173.49
393.91	1196.01
394.12	1165.29
394.33	1220.59
394.53	1247.21
394.74	1236.97
394.95	1206.25
395.16	1282.03
395.36	1261.55
395.57	1247.21
395.78	1200.11
395.99	1239.02
396.19	1163.25
396.40	1259.50
396.61	1247.21
396.81	1185.77
397.02	1200.11
397.23	1267.69
397.44	1239.02
397.64	1222.64
397.85	1165.29
398.06	1208.30
398.27	1124.33
398.47	1265.64
398.68	1206.25
398.89	1222.64
399.09	1169.39
399.30	1126.38
399.51	1216.49
399.72	1253.36
399.92	1173.49
400.13	1167.34
400.34	1193.97
400.54	1282.03
400.75	1255.40
400.96	1224.69
401.17	1222.64
401.37	1253.36
401.58	1171.44
401.79	1245.16
401.99	1191.92
402.20	1255.40
402.41	1253.36
402.61	1236.97
402.82	1222.64
403.03	1216.49
403.24	1183.73
403.44	1247.21
403.65	1255.40
403.86	1243.12
404.06	1208.30
404.27	1261.55
404.48	1230.83
404.68	1267.69
404.89	1265.64
405.10	1173.49
405.30	1218.54
405.51	1255.40
405.72	1210.35
405.92	1259.50
406.13	1136.62
406.34	1290.22
406.54	1173.49
406.75	1191.92
406.96	1216.49
407.16	1146.86
407.37	1224.69
407.58	1257.45
407.78	1212.40
407.99	1253.36
408.20	1204.21
408.40	1284.08
408.61	1204.21
408.82	1220.59
409.02	1271.79
409.23	1298.41
409.44	1312.75
409.64	1218.54
409.85	1169.39
410.06	1296.36
410.26	1306.60
410.47	1302.51
410.68	1253.36
410.88	1210.35
411.09	1220.59
411.30	1239.02
411.50	1261.55
411.71	1212.40
411.91	1222.64
412.12	1261.55
412.33	1224.69
412.53	1179.63
412.74	1206.25
412.95	1282.03
413.15	1193.97
413.36	1173.49
413.57	1234.93
413.77	1267.69
413.98	1230.83
414.18	1214.45
414.39	1263.60
414.60	1265.64
414.80	1171.44
415.01	1241.07
415.22	1249.26
415.42	1282.03
415.63	1259.50
415.83	1249.26
416.04	1175.53
416.25	1236.97
416.45	1265.64
416.66	1288.17
416.86	1273.84
417.07	1228.78
417.28	1220.59
417.48	1257.45
417.69	1267.69
417.89	1157.10
418.10	1226.73
418.31	1249.26
418.51	1234.93
418.72	1267.69
418.92	1167.34
419.13	1275.88
419.34	1243.12
419.54	1214.45
419.75	1187.82
419.95	1273.84
420.16	1228.78
420.37	1216.49
420.57	1183.73
420.78	1292.27
420.98	1300.46
421.19	1253.36
421.40	1198.06
421.60	1214.45
421.81	1245.16
422.01	1179.63
422.22	1251.31
422.42	1204.21
422.63	1193.97
422.84	1222.64
423.04	1198.06
423.25	1243.12
423.45	1230.83
423.66	1165.29
423.86	1234.93
424.07	1251.31
424.28	1226.73
424.48	1267.69
424.69	1232.88
424.89	1218.54
425.10	1173.49
425.30	1253.36
425.51	1206.25
425.72	1216.49
425.92	1247.21
426.13	1208.30
426.33	1165.29
426.54	1265.64
426.74	1212.40
426.95	1302.51
427.15	1253.36
427.36	1208.30
427.56	1277.93
427.77	1198.06
427.98	1267.69
428.18	1214.45
428.39	1214.45
428.59	1216.49
428.80	1181.68
429.00	1273.84
429.21	1157.10
429.41	1253.36
429.62	1271.79
429.82	1230.83
430.03	1214.45
430.23	1179.63
430.44	1220.59
430.65	1300.46
430.85	1175.53
431.06	1157.10
431.26	1187.82
431.47	1177.58
431.67	1193.97
431.88	1257.45
432.08	1177.58
432.29	1230.83
432.49	1198.06
432.70	1253.36
432.90	1208.30
433.11	1239.02
433.31	1243.12
433.52	1216.49
433.72	1247.21
433.93	1265.64
434.13	1220.59
434.34	1269.74
