SpectraSuite Data File
++++++++++++++++++++++++++++++++++++
Date: Fri Jan 24 17:06:12 MST 2020
User: Molly
Dark Spectrum Present: Yes
Reference Spectrum Present: Yes
Number of Sampled Component Spectra: 1
Spectrometers: USB4E03280
Integration Time (usec): 32000 (USB4E03280)
Spectra Averaged: 1 (USB4E03280)
Boxcar Smoothing: 0 (USB4E03280)
Correct for Electrical Dark: No (USB4E03280)
Strobe/Lamp Enabled: Yes (USB4E03280)
Correct for Detector Non-linearity: No (USB4E03280)
Correct for Stray Light: No (USB4E03280)
Number of Pixels in Processed Spectrum: 3648
>>>>>Begin Processed Spectral Data<<<<<
177.66	1069.04
177.88	1069.04
178.10	1069.04
178.32	1222.64
178.54	1247.21
178.76	1265.64
178.98	1267.69
179.19	1286.12
179.41	1208.30
179.63	1218.54
179.85	1177.58
180.07	1177.58
180.29	1239.02
180.51	1245.16
180.72	1259.50
180.94	1228.78
181.16	1191.92
181.38	1255.40
181.60	1304.56
181.82	1216.49
182.04	1249.26
182.25	1257.45
182.47	1202.16
182.69	1308.65
182.91	1198.06
183.13	1243.12
183.35	1327.08
183.56	1271.79
183.78	1257.45
184.00	1124.33
184.22	1196.01
184.44	1187.82
184.66	1216.49
184.87	1236.97
185.09	1198.06
185.31	1138.67
185.53	1204.21
185.75	1177.58
185.97	1255.40
186.18	1204.21
186.40	1275.88
186.62	1259.50
186.84	1191.92
187.06	1222.64
187.28	1308.65
187.49	1275.88
187.71	1271.79
187.93	1300.46
188.15	1212.40
188.37	1222.64
188.59	1236.97
188.80	1202.16
189.02	1249.26
189.24	1290.22
189.46	1230.83
189.68	1257.45
189.89	1212.40
190.11	1171.44
190.33	1230.83
190.55	1230.83
190.77	1181.68
190.98	1187.82
191.20	1255.40
191.42	1241.07
191.64	1155.05
191.86	1255.40
192.07	1216.49
192.29	1159.15
192.51	1271.79
192.73	1210.35
192.95	1167.34
193.16	1216.49
193.38	1253.36
193.60	1249.26
193.82	1183.73
194.04	1142.77
194.25	1257.45
194.47	1218.54
194.69	1255.40
194.91	1267.69
195.13	1191.92
195.34	1200.11
195.56	1181.68
195.78	1140.72
196.00	1284.08
196.22	1286.12
196.43	1298.41
196.65	1220.59
196.87	1234.93
197.09	1234.93
197.30	1228.78
197.52	1353.71
197.74	1247.21
197.96	1245.16
198.18	1236.97
198.39	1216.49
198.61	1204.21
198.83	1218.54
199.05	1228.78
199.26	1228.78
199.48	1282.03
199.70	1198.06
199.92	1259.50
200.13	1198.06
200.35	1273.84
200.57	1224.69
200.79	1253.36
201.00	1277.93
201.22	1226.73
201.44	1253.36
201.66	1173.49
201.88	1167.34
202.09	1181.68
202.31	1191.92
202.53	1216.49
202.75	1169.39
202.96	1243.12
203.18	1243.12
203.40	1179.63
203.62	1261.55
203.83	1306.60
204.05	1279.98
204.27	1185.77
204.49	1181.68
204.70	1232.88
204.92	1177.58
205.14	1224.69
205.35	1220.59
205.57	1286.12
205.79	1263.60
206.01	1206.25
206.22	1204.21
206.44	1241.07
206.66	1232.88
206.88	1255.40
207.09	1275.88
207.31	1284.08
207.53	1200.11
207.75	1206.25
207.96	1247.21
208.18	1253.36
208.40	1265.64
208.61	1251.31
208.83	1243.12
209.05	1183.73
209.27	1267.69
209.48	1265.64
209.70	1329.13
209.92	1222.64
210.14	1228.78
210.35	1163.25
210.57	1325.04
210.79	1163.25
211.00	1245.16
211.22	1228.78
211.44	1290.22
211.66	1228.78
211.87	1224.69
212.09	1261.55
212.31	1171.44
212.52	1226.73
212.74	1191.92
212.96	1265.64
213.17	1208.30
213.39	1173.49
213.61	1169.39
213.83	1191.92
214.04	1261.55
214.26	1241.07
214.48	1245.16
214.69	1208.30
214.91	1269.74
215.13	1232.88
215.34	1187.82
215.56	1277.93
215.78	1263.60
216.00	1230.83
216.21	1218.54
216.43	1210.35
216.65	1179.63
216.86	1216.49
217.08	1222.64
217.30	1288.17
217.51	1236.97
217.73	1236.97
217.95	1239.02
218.16	1198.06
218.38	1302.51
218.60	1232.88
218.81	1245.16
219.03	1171.44
219.25	1243.12
219.46	1191.92
219.68	1212.40
219.90	1222.64
220.11	1302.51
220.33	1196.01
220.55	1134.57
220.76	1226.73
220.98	1167.34
221.20	1232.88
221.41	1234.93
221.63	1226.73
221.85	1212.40
222.06	1279.98
222.28	1218.54
222.50	1241.07
222.71	1255.40
222.93	1253.36
223.15	1200.11
223.36	1310.70
223.58	1292.27
223.80	1236.97
224.01	1150.96
224.23	1247.21
224.45	1269.74
224.66	1216.49
224.88	1220.59
225.10	1232.88
225.31	1236.97
225.53	1202.16
225.75	1228.78
225.96	1232.88
226.18	1214.45
226.39	1198.06
226.61	1232.88
226.83	1267.69
227.04	1165.29
227.26	1349.61
227.48	1337.32
227.69	1269.74
227.91	1228.78
228.13	1210.35
228.34	1267.69
228.56	1267.69
228.77	1198.06
228.99	1226.73
229.21	1253.36
229.42	1224.69
229.64	1257.45
229.86	1236.97
230.07	1273.84
230.29	1259.50
230.50	1226.73
230.72	1269.74
230.94	1263.60
231.15	1277.93
231.37	1282.03
231.58	1222.64
231.80	1259.50
232.02	1218.54
232.23	1249.26
232.45	1206.25
232.67	1202.16
232.88	1236.97
233.10	1288.17
233.31	1327.08
233.53	1234.93
233.75	1193.97
233.96	1232.88
234.18	1232.88
234.39	1167.34
234.61	1267.69
234.83	1239.02
235.04	1198.06
235.26	1253.36
235.47	1236.97
235.69	1222.64
235.91	1249.26
236.12	1228.78
236.34	1312.75
236.55	1196.01
236.77	1148.91
236.99	1261.55
237.20	1275.88
237.42	1275.88
237.63	1204.21
237.85	1269.74
238.06	1277.93
238.28	1218.54
238.50	1271.79
238.71	1171.44
238.93	1308.65
239.14	1257.45
239.36	1271.79
239.58	1263.60
239.79	1228.78
240.01	1226.73
240.22	1263.60
240.44	1282.03
240.65	1298.41
240.87	1265.64
241.09	1296.36
241.30	1216.49
241.52	1224.69
241.73	1275.88
241.95	1296.36
242.16	1196.01
242.38	1210.35
242.59	1200.11
242.81	1241.07
243.03	1245.16
243.24	1251.31
243.46	1177.58
243.67	1130.48
243.89	1230.83
244.10	1171.44
244.32	1204.21
244.53	1253.36
244.75	1202.16
244.97	1261.55
245.18	1259.50
245.40	1282.03
245.61	1196.01
245.83	1234.93
246.04	1251.31
246.26	1210.35
246.47	1249.26
246.69	1277.93
246.90	1277.93
247.12	1243.12
247.34	1210.35
247.55	1243.12
247.77	1173.49
247.98	1279.98
248.20	1196.01
248.41	1261.55
248.63	1181.68
248.84	1341.42
249.06	1196.01
249.27	1234.93
249.49	1239.02
249.70	1282.03
249.92	1173.49
250.13	1263.60
250.35	1224.69
250.56	1216.49
250.78	1247.21
251.00	1218.54
251.21	1234.93
251.43	1277.93
251.64	1200.11
251.86	1220.59
252.07	1259.50
252.29	1224.69
252.50	1241.07
252.72	1224.69
252.93	1308.65
253.15	1296.36
253.36	1286.12
253.58	1183.73
253.79	1255.40
254.01	1257.45
254.22	1171.44
254.44	1183.73
254.65	1171.44
254.87	1292.27
255.08	1198.06
255.30	1220.59
255.51	1187.82
255.73	1259.50
255.94	1284.08
256.16	1294.32
256.37	1175.53
256.59	1263.60
256.80	1153.01
257.02	1230.83
257.23	1230.83
257.45	1265.64
257.66	1175.53
257.88	1259.50
258.09	1204.21
258.31	1267.69
258.52	1187.82
258.74	1269.74
258.95	1171.44
259.16	1177.58
259.38	1165.29
259.59	1296.36
259.81	1253.36
260.02	1267.69
260.24	1183.73
260.45	1282.03
260.67	1228.78
260.88	1271.79
261.10	1279.98
261.31	1185.77
261.53	1234.93
261.74	1277.93
261.96	1159.15
262.17	1228.78
262.39	1226.73
262.60	1284.08
262.81	1251.31
263.03	1218.54
263.24	1216.49
263.46	1282.03
263.67	1265.64
263.89	1257.45
264.10	1187.82
264.32	1202.16
264.53	1214.45
264.75	1284.08
264.96	1191.92
265.17	1294.32
265.39	1208.30
265.60	1202.16
265.82	1218.54
266.03	1171.44
266.25	1271.79
266.46	1198.06
266.68	1253.36
266.89	1239.02
267.10	1196.01
267.32	1236.97
267.53	1243.12
267.75	1230.83
267.96	1298.41
268.18	1251.31
268.39	1241.07
268.61	1187.82
268.82	1218.54
269.03	1232.88
269.25	1234.93
269.46	1181.68
269.68	1228.78
269.89	1193.97
270.11	1228.78
270.32	1245.16
270.53	1222.64
270.75	1279.98
270.96	1310.70
271.18	1224.69
271.39	1224.69
271.60	1261.55
271.82	1206.25
272.03	1220.59
272.25	1150.96
272.46	1216.49
272.68	1249.26
272.89	1261.55
273.10	1204.21
273.32	1202.16
273.53	1236.97
273.75	1210.35
273.96	1286.12
274.17	1220.59
274.39	1247.21
274.60	1218.54
274.82	1210.35
275.03	1241.07
275.24	1298.41
275.46	1298.41
275.67	1241.07
275.89	1253.36
276.10	1202.16
276.31	1253.36
276.53	1226.73
276.74	1196.01
276.96	1310.70
277.17	1228.78
277.38	1222.64
277.60	1241.07
277.81	1241.07
278.02	1251.31
278.24	1279.98
278.45	1202.16
278.67	1134.57
278.88	1267.69
279.09	1132.53
279.31	1290.22
279.52	1220.59
279.73	1257.45
279.95	1257.45
280.16	1267.69
280.38	1185.77
280.59	1277.93
280.80	1236.97
281.02	1157.10
281.23	1220.59
281.44	1255.40
281.66	1224.69
281.87	1224.69
282.09	1198.06
282.30	1286.12
282.51	1232.88
282.73	1320.94
282.94	1175.53
283.15	1267.69
283.37	1275.88
283.58	1294.32
283.79	1224.69
284.01	1193.97
284.22	1249.26
284.43	1167.34
284.65	1206.25
284.86	1234.93
285.07	1198.06
285.29	1247.21
285.50	1263.60
285.72	1163.25
285.93	1234.93
286.14	1271.79
286.36	1265.64
286.57	1193.97
286.78	1234.93
287.00	1226.73
287.21	1265.64
287.42	1277.93
287.64	1286.12
287.85	1286.12
288.06	1220.59
288.28	1198.06
288.49	1230.83
288.70	1267.69
288.92	1212.40
289.13	1226.73
289.34	1216.49
289.56	1239.02
289.77	1183.73
289.98	1251.31
290.19	1210.35
290.41	1236.97
290.62	1261.55
290.83	1249.26
291.05	1208.30
291.26	1273.84
291.47	1269.74
291.69	1286.12
291.90	1236.97
292.11	1251.31
292.33	1251.31
292.54	1253.36
292.75	1191.92
292.97	1253.36
293.18	1222.64
293.39	1187.82
293.60	1265.64
293.82	1257.45
294.03	1216.49
294.24	1253.36
294.46	1241.07
294.67	1247.21
294.88	1241.07
295.10	1220.59
295.31	1193.97
295.52	1196.01
295.73	1202.16
295.95	1259.50
296.16	1165.29
296.37	1275.88
296.59	1150.96
296.80	1249.26
297.01	1331.18
297.22	1261.55
297.44	1312.75
297.65	1255.40
297.86	1232.88
298.08	1163.25
298.29	1236.97
298.50	1161.20
298.71	1249.26
298.93	1232.88
299.14	1251.31
299.35	1318.89
299.56	1222.64
299.78	1202.16
299.99	1282.03
300.20	1185.77
300.42	1216.49
300.63	1214.45
300.84	1216.49
301.05	1169.39
301.27	1245.16
301.48	1212.40
301.69	1259.50
301.90	1247.21
302.12	1167.34
302.33	1249.26
302.54	1208.30
302.75	1294.32
302.97	1243.12
303.18	1179.63
303.39	1175.53
303.60	1310.70
303.82	1325.04
304.03	1279.98
304.24	1273.84
304.45	1245.16
304.67	1239.02
304.88	1282.03
305.09	1253.36
305.30	1210.35
305.52	1228.78
305.73	1224.69
305.94	1230.83
306.15	1216.49
306.37	1314.80
306.58	1267.69
306.79	1193.97
307.00	1251.31
307.22	1191.92
307.43	1271.79
307.64	1253.36
307.85	1372.14
308.06	1255.40
308.28	1189.87
308.49	1318.89
308.70	1230.83
308.91	1245.16
309.13	1196.01
309.34	1208.30
309.55	1245.16
309.76	1282.03
309.97	1282.03
310.19	1196.01
310.40	1349.61
310.61	1198.06
310.82	1167.34
311.04	1279.98
311.25	1208.30
311.46	1245.16
311.67	1271.79
311.88	1150.96
312.10	1243.12
312.31	1228.78
312.52	1206.25
312.73	1277.93
312.94	1259.50
313.16	1279.98
313.37	1292.27
313.58	1208.30
313.79	1204.21
314.00	1269.74
314.22	1193.97
314.43	1236.97
314.64	1212.40
314.85	1267.69
315.06	1298.41
315.27	1251.31
315.49	1210.35
315.70	1236.97
315.91	1212.40
316.12	1153.01
316.33	1251.31
316.55	1292.27
316.76	1282.03
316.97	1210.35
317.18	1247.21
317.39	1273.84
317.60	1200.11
317.82	1253.36
318.03	1282.03
318.24	1224.69
318.45	1253.36
318.66	1228.78
318.88	1241.07
319.09	1273.84
319.30	1245.16
319.51	1267.69
319.72	1249.26
319.93	1290.22
320.15	1329.13
320.36	1302.51
320.57	1198.06
320.78	1208.30
320.99	1226.73
321.20	1255.40
321.41	1222.64
321.63	1265.64
321.84	1198.06
322.05	1208.30
322.26	1282.03
322.47	1220.59
322.68	1226.73
322.90	1249.26
323.11	1200.11
323.32	1228.78
323.53	1220.59
323.74	1251.31
323.95	1228.78
324.16	1277.93
324.38	1234.93
324.59	1247.21
324.80	1191.92
325.01	1269.74
325.22	1241.07
325.43	1245.16
325.64	1267.69
325.85	1298.41
326.07	1161.20
326.28	1181.68
326.49	1279.98
326.70	1232.88
326.91	1224.69
327.12	1253.36
327.33	1208.30
327.54	1210.35
327.76	1218.54
327.97	1363.95
328.18	1267.69
328.39	1177.58
328.60	1277.93
328.81	1163.25
329.02	1216.49
329.23	1218.54
329.45	1249.26
329.66	1208.30
329.87	1196.01
330.08	1255.40
330.29	1210.35
330.50	1228.78
330.71	1198.06
330.92	1191.92
331.13	1232.88
331.34	1185.77
331.56	1239.02
331.77	1210.35
331.98	1286.12
332.19	1204.21
332.40	1245.16
332.61	1165.29
332.82	1228.78
333.03	1234.93
333.24	1216.49
333.45	1236.97
333.67	1224.69
333.88	1196.01
334.09	1277.93
334.30	1212.40
334.51	1265.64
334.72	1198.06
334.93	1265.64
335.14	1236.97
335.35	1148.91
335.56	1253.36
335.77	1290.22
335.98	1275.88
336.19	1216.49
336.41	1214.45
336.62	1239.02
336.83	1185.77
337.04	1288.17
337.25	1245.16
337.46	1171.44
337.67	1185.77
337.88	1245.16
338.09	1271.79
338.30	1177.58
338.51	1253.36
338.72	1263.60
338.93	1230.83
339.14	1198.06
339.35	1155.05
339.57	1189.87
339.78	1187.82
339.99	1228.78
340.20	1200.11
340.41	1220.59
340.62	1202.16
340.83	1228.78
341.04	1251.31
341.25	1226.73
341.46	1269.74
341.67	1218.54
341.88	1261.55
342.09	1218.54
342.30	1290.22
342.51	1191.92
342.72	1234.93
342.93	1304.56
343.14	1202.16
343.35	1212.40
343.56	1208.30
343.77	1214.45
343.98	1259.50
344.19	1230.83
344.41	1218.54
344.62	1230.83
344.83	1249.26
345.04	1245.16
345.25	1175.53
345.46	1257.45
345.67	1200.11
345.88	1255.40
346.09	1230.83
346.30	1169.39
346.51	1126.38
346.72	1282.03
346.93	1169.39
347.14	1218.54
347.35	1224.69
347.56	1253.36
347.77	1202.16
347.98	1300.46
348.19	1255.40
348.40	1273.84
348.61	1216.49
348.82	1214.45
349.03	1279.98
349.24	1136.62
349.45	1273.84
349.66	1247.21
349.87	1259.50
350.08	1163.25
350.29	1253.36
350.50	1296.36
350.71	1267.69
350.92	1187.82
351.13	1296.36
351.34	1247.21
351.55	1200.11
351.76	1267.69
351.97	1208.30
352.18	1206.25
352.39	1202.16
352.60	1220.59
352.81	1236.97
353.02	1263.60
353.23	1216.49
353.44	1226.73
353.65	1153.01
353.86	1275.88
354.07	1183.73
354.28	1241.07
354.49	1177.58
354.70	1212.40
354.90	1179.63
355.11	1204.21
355.32	1308.65
355.53	1265.64
355.74	1243.12
355.95	1257.45
356.16	1218.54
356.37	1267.69
356.58	1257.45
356.79	1228.78
357.00	1208.30
357.21	1337.32
357.42	1193.97
357.63	1179.63
357.84	1200.11
358.05	1236.97
358.26	1261.55
358.47	1312.75
358.68	1212.40
358.89	1267.69
359.10	1198.06
359.31	1167.34
359.52	1130.48
359.73	1202.16
359.93	1277.93
360.14	1277.93
360.35	1243.12
360.56	1214.45
360.77	1191.92
360.98	1204.21
361.19	1234.93
361.40	1220.59
361.61	1288.17
361.82	1210.35
362.03	1163.25
362.24	1310.70
362.45	1218.54
362.66	1257.45
362.87	1226.73
363.07	1284.08
363.28	1212.40
363.49	1169.39
363.70	1245.16
363.91	1208.30
364.12	1224.69
364.33	1134.57
364.54	1222.64
364.75	1284.08
364.96	1335.28
365.17	1202.16
365.38	1302.51
365.58	1245.16
365.79	1232.88
366.00	1251.31
366.21	1179.63
366.42	1257.45
366.63	1230.83
366.84	1253.36
367.05	1165.29
367.26	1243.12
367.47	1226.73
367.67	1230.83
367.88	1187.82
368.09	1249.26
368.30	1161.20
368.51	1290.22
368.72	1224.69
368.93	1277.93
369.14	1261.55
369.35	1318.89
369.56	1249.26
369.76	1298.41
369.97	1257.45
370.18	1245.16
370.39	1214.45
370.60	1206.25
370.81	1200.11
371.02	1150.96
371.23	1232.88
371.43	1128.43
371.64	1214.45
371.85	1196.01
372.06	1208.30
372.27	1263.60
372.48	1251.31
372.69	1249.26
372.90	1261.55
373.10	1222.64
373.31	1251.31
373.52	1284.08
373.73	1243.12
373.94	1214.45
374.15	1212.40
374.36	1245.16
374.56	1228.78
374.77	1226.73
374.98	1212.40
375.19	1224.69
375.40	1179.63
375.61	1259.50
375.82	1259.50
376.02	1187.82
376.23	1253.36
376.44	1222.64
376.65	1243.12
376.86	1232.88
377.07	1165.29
377.28	1173.49
377.48	1167.34
377.69	1224.69
377.90	1214.45
378.11	1249.26
378.32	1245.16
378.53	1296.36
378.73	1198.06
378.94	1232.88
379.15	1212.40
379.36	1214.45
379.57	1312.75
379.78	1275.88
379.98	1175.53
380.19	1245.16
380.40	1218.54
380.61	1243.12
380.82	1187.82
381.03	1255.40
381.23	1165.29
381.44	1183.73
381.65	1265.64
381.86	1210.35
382.07	1257.45
382.27	1236.97
382.48	1165.29
382.69	1206.25
382.90	1359.85
383.11	1241.07
383.32	1220.59
383.52	1296.36
383.73	1302.51
383.94	1204.21
384.15	1241.07
384.36	1198.06
384.56	1241.07
384.77	1218.54
384.98	1290.22
385.19	1169.39
385.40	1200.11
385.60	1245.16
385.81	1132.53
386.02	1173.49
386.23	1198.06
386.43	1261.55
386.64	1269.74
386.85	1218.54
387.06	1251.31
387.27	1261.55
387.47	1212.40
387.68	1216.49
387.89	1236.97
388.10	1177.58
388.31	1226.73
388.51	1247.21
388.72	1259.50
388.93	1230.83
389.14	1275.88
389.34	1196.01
389.55	1241.07
389.76	1189.87
389.97	1210.35
390.18	1187.82
390.38	1218.54
390.59	1228.78
390.80	1232.88
391.01	1210.35
391.21	1183.73
391.42	1228.78
391.63	1296.36
391.84	1249.26
392.04	1193.97
392.25	1269.74
392.46	1202.16
392.67	1193.97
392.87	1196.01
393.08	1241.07
393.29	1275.88
393.50	1304.56
393.70	1208.30
393.91	1245.16
394.12	1191.92
394.33	1220.59
394.53	1216.49
394.74	1226.73
394.95	1204.21
395.16	1310.70
395.36	1214.45
395.57	1234.93
395.78	1157.10
395.99	1236.97
396.19	1204.21
396.40	1253.36
396.61	1155.05
396.81	1236.97
397.02	1167.34
397.23	1255.40
397.44	1257.45
397.64	1247.21
397.85	1239.02
398.06	1271.79
398.27	1183.73
398.47	1247.21
398.68	1189.87
398.89	1279.98
399.09	1202.16
399.30	1222.64
399.51	1224.69
399.72	1222.64
399.92	1249.26
400.13	1271.79
400.34	1198.06
400.54	1210.35
400.75	1284.08
400.96	1263.60
401.17	1245.16
401.37	1165.29
401.58	1220.59
401.79	1284.08
401.99	1257.45
402.20	1161.20
402.41	1214.45
402.61	1308.65
402.82	1216.49
403.03	1292.27
403.24	1222.64
403.44	1286.12
403.65	1196.01
403.86	1271.79
404.06	1279.98
404.27	1245.16
404.48	1261.55
404.68	1325.04
404.89	1261.55
405.10	1226.73
405.30	1173.49
405.51	1204.21
405.72	1255.40
405.92	1245.16
406.13	1136.62
406.34	1271.79
406.54	1218.54
406.75	1284.08
406.96	1261.55
407.16	1165.29
407.37	1191.92
407.58	1239.02
407.78	1204.21
407.99	1261.55
408.20	1245.16
408.40	1122.29
408.61	1202.16
408.82	1222.64
409.02	1232.88
409.23	1294.32
409.44	1208.30
409.64	1163.25
409.85	1220.59
410.06	1259.50
410.26	1271.79
410.47	1193.97
410.68	1204.21
410.88	1265.64
411.09	1222.64
411.30	1200.11
411.50	1284.08
411.71	1204.21
411.91	1249.26
412.12	1222.64
412.33	1204.21
412.53	1193.97
412.74	1261.55
412.95	1243.12
413.15	1204.21
413.36	1208.30
413.57	1255.40
413.77	1253.36
413.98	1206.25
414.18	1243.12
414.39	1163.25
414.60	1202.16
414.80	1259.50
415.01	1247.21
415.22	1193.97
415.42	1159.15
415.63	1163.25
415.83	1232.88
416.04	1222.64
416.25	1191.92
416.45	1236.97
416.66	1275.88
416.86	1222.64
417.07	1208.30
417.28	1228.78
417.48	1247.21
417.69	1230.83
417.89	1236.97
418.10	1153.01
418.31	1286.12
418.51	1224.69
418.72	1253.36
418.92	1191.92
419.13	1169.39
419.34	1224.69
419.54	1224.69
419.75	1171.44
419.95	1261.55
420.16	1232.88
420.37	1245.16
420.57	1224.69
420.78	1236.97
420.98	1202.16
421.19	1245.16
421.40	1212.40
421.60	1236.97
421.81	1325.04
422.01	1286.12
422.22	1265.64
422.42	1202.16
422.63	1236.97
422.84	1222.64
423.04	1175.53
423.25	1224.69
423.45	1224.69
423.66	1196.01
423.86	1245.16
424.07	1249.26
424.28	1314.80
424.48	1202.16
424.69	1288.17
424.89	1206.25
425.10	1189.87
425.30	1173.49
425.51	1187.82
425.72	1224.69
425.92	1163.25
426.13	1181.68
426.33	1263.60
426.54	1212.40
426.74	1191.92
426.95	1243.12
427.15	1275.88
427.36	1208.30
427.56	1196.01
427.77	1265.64
427.98	1187.82
428.18	1210.35
428.39	1224.69
428.59	1214.45
428.80	1198.06
429.00	1222.64
429.21	1245.16
429.41	1288.17
429.62	1271.79
429.82	1245.16
430.03	1261.55
430.23	1271.79
430.44	1243.12
430.65	1218.54
430.85	1206.25
431.06	1239.02
431.26	1204.21
431.47	1150.96
431.67	1163.25
431.88	1267.69
432.08	1277.93
432.29	1196.01
432.49	1245.16
432.70	1222.64
432.90	1275.88
433.11	1193.97
433.31	1228.78
433.52	1226.73
433.72	1206.25
433.93	1222.64
434.13	1234.93
434.34	1288.17
