SpectraSuite Data File
++++++++++++++++++++++++++++++++++++
Date: Fri Jan 24 16:52:17 MST 2020
User: Molly
Dark Spectrum Present: Yes
Reference Spectrum Present: Yes
Number of Sampled Component Spectra: 1
Spectrometers: USB4E03280
Integration Time (usec): 32000 (USB4E03280)
Spectra Averaged: 1 (USB4E03280)
Boxcar Smoothing: 0 (USB4E03280)
Correct for Electrical Dark: No (USB4E03280)
Strobe/Lamp Enabled: Yes (USB4E03280)
Correct for Detector Non-linearity: No (USB4E03280)
Correct for Stray Light: No (USB4E03280)
Number of Pixels in Processed Spectrum: 3648
>>>>>Begin Processed Spectral Data<<<<<
177.66	1200.11
177.88	1200.11
178.10	1200.11
178.32	1163.25
178.54	1202.16
178.76	1196.01
178.98	1253.36
179.19	1224.69
179.41	1208.30
179.63	1245.16
179.85	1191.92
180.07	1177.58
180.29	1234.93
180.51	1202.16
180.72	1230.83
180.94	1216.49
181.16	1236.97
181.38	1259.50
181.60	1263.60
181.82	1183.73
182.04	1282.03
182.25	1314.80
182.47	1279.98
182.69	1302.51
182.91	1247.21
183.13	1239.02
183.35	1286.12
183.56	1196.01
183.78	1187.82
184.00	1267.69
184.22	1273.84
184.44	1193.97
184.66	1290.22
184.87	1218.54
185.09	1296.36
185.31	1198.06
185.53	1290.22
185.75	1271.79
185.97	1306.60
186.18	1236.97
186.40	1230.83
186.62	1220.59
186.84	1224.69
187.06	1243.12
187.28	1290.22
187.49	1329.13
187.71	1196.01
187.93	1288.17
188.15	1241.07
188.37	1294.32
188.59	1292.27
188.80	1277.93
189.02	1277.93
189.24	1236.97
189.46	1286.12
189.68	1255.40
189.89	1257.45
190.11	1257.45
190.33	1275.88
190.55	1245.16
190.77	1202.16
190.98	1273.84
191.20	1232.88
191.42	1216.49
191.64	1277.93
191.86	1277.93
192.07	1210.35
192.29	1263.60
192.51	1251.31
192.73	1257.45
192.95	1286.12
193.16	1234.93
193.38	1345.52
193.60	1292.27
193.82	1292.27
194.04	1318.89
194.25	1191.92
194.47	1253.36
194.69	1282.03
194.91	1261.55
195.13	1243.12
195.34	1275.88
195.56	1245.16
195.78	1167.34
196.00	1310.70
196.22	1249.26
196.43	1302.51
196.65	1275.88
196.87	1212.40
197.09	1251.31
197.30	1263.60
197.52	1245.16
197.74	1267.69
197.96	1277.93
198.18	1241.07
198.39	1251.31
198.61	1255.40
198.83	1243.12
199.05	1208.30
199.26	1208.30
199.48	1236.97
199.70	1247.21
199.92	1282.03
200.13	1282.03
200.35	1269.74
200.57	1196.01
200.79	1333.23
201.00	1220.59
201.22	1304.56
201.44	1224.69
201.66	1218.54
201.88	1343.47
202.09	1249.26
202.31	1249.26
202.53	1265.64
202.75	1271.79
202.96	1198.06
203.18	1335.28
203.40	1310.70
203.62	1300.46
203.83	1292.27
204.05	1167.34
204.27	1302.51
204.49	1251.31
204.70	1271.79
204.92	1298.41
205.14	1236.97
205.35	1161.20
205.57	1320.94
205.79	1314.80
206.01	1277.93
206.22	1157.10
206.44	1265.64
206.66	1275.88
206.88	1245.16
207.09	1257.45
207.31	1382.38
207.53	1275.88
207.75	1269.74
207.96	1296.36
208.18	1325.04
208.40	1302.51
208.61	1234.93
208.83	1214.45
209.05	1255.40
209.27	1196.01
209.48	1157.10
209.70	1251.31
209.92	1271.79
210.14	1173.49
210.35	1230.83
210.57	1273.84
210.79	1236.97
211.00	1275.88
211.22	1273.84
211.44	1271.79
211.66	1261.55
211.87	1294.32
212.09	1257.45
212.31	1304.56
212.52	1257.45
212.74	1261.55
212.96	1282.03
213.17	1370.09
213.39	1228.78
213.61	1345.52
213.83	1212.40
214.04	1302.51
214.26	1202.16
214.48	1257.45
214.69	1267.69
214.91	1310.70
215.13	1255.40
215.34	1241.07
215.56	1300.46
215.78	1286.12
216.00	1265.64
216.21	1212.40
216.43	1273.84
216.65	1200.11
216.86	1261.55
217.08	1273.84
217.30	1304.56
217.51	1271.79
217.73	1306.60
217.95	1279.98
218.16	1331.18
218.38	1234.93
218.60	1282.03
218.81	1271.79
219.03	1286.12
219.25	1271.79
219.46	1222.64
219.68	1222.64
219.90	1292.27
220.11	1302.51
220.33	1220.59
220.55	1230.83
220.76	1306.60
220.98	1196.01
221.20	1273.84
221.41	1310.70
221.63	1265.64
221.85	1232.88
222.06	1302.51
222.28	1335.28
222.50	1302.51
222.71	1243.12
222.93	1312.75
223.15	1304.56
223.36	1343.47
223.58	1234.93
223.80	1302.51
224.01	1314.80
224.23	1298.41
224.45	1263.60
224.66	1273.84
224.88	1161.20
225.10	1355.76
225.31	1257.45
225.53	1265.64
225.75	1310.70
225.96	1286.12
226.18	1279.98
226.39	1249.26
226.61	1236.97
226.83	1298.41
227.04	1208.30
227.26	1282.03
227.48	1282.03
227.69	1257.45
227.91	1308.65
228.13	1282.03
228.34	1316.84
228.56	1243.12
228.77	1275.88
228.99	1253.36
229.21	1298.41
229.42	1296.36
229.64	1245.16
229.86	1261.55
230.07	1249.26
230.29	1298.41
230.50	1255.40
230.72	1210.35
230.94	1265.64
231.15	1282.03
231.37	1249.26
231.58	1259.50
231.80	1208.30
232.02	1230.83
232.23	1329.13
232.45	1273.84
232.67	1232.88
232.88	1302.51
233.10	1206.25
233.31	1275.88
233.53	1232.88
233.75	1210.35
233.96	1230.83
234.18	1259.50
234.39	1259.50
234.61	1273.84
234.83	1171.44
235.04	1187.82
235.26	1222.64
235.47	1222.64
235.69	1193.97
235.91	1306.60
236.12	1292.27
236.34	1255.40
236.55	1251.31
236.77	1310.70
236.99	1290.22
237.20	1282.03
237.42	1279.98
237.63	1234.93
237.85	1257.45
238.06	1306.60
238.28	1200.11
238.50	1363.95
238.71	1263.60
238.93	1294.32
239.14	1206.25
239.36	1277.93
239.58	1249.26
239.79	1243.12
240.01	1296.36
240.22	1279.98
240.44	1251.31
240.65	1249.26
240.87	1236.97
241.09	1179.63
241.30	1296.36
241.52	1284.08
241.73	1288.17
241.95	1253.36
242.16	1306.60
242.38	1361.90
242.59	1169.39
242.81	1230.83
243.03	1372.14
243.24	1288.17
243.46	1253.36
243.67	1243.12
243.89	1222.64
244.10	1269.74
244.32	1298.41
244.53	1204.21
244.75	1241.07
244.97	1277.93
245.18	1269.74
245.40	1277.93
245.61	1306.60
245.83	1187.82
246.04	1279.98
246.26	1294.32
246.47	1327.08
246.69	1253.36
246.90	1257.45
247.12	1277.93
247.34	1277.93
247.55	1271.79
247.77	1230.83
247.98	1308.65
248.20	1173.49
248.41	1249.26
248.63	1302.51
248.84	1239.02
249.06	1204.21
249.27	1322.99
249.49	1251.31
249.70	1265.64
249.92	1212.40
250.13	1290.22
250.35	1277.93
250.56	1335.28
250.78	1294.32
251.00	1269.74
251.21	1271.79
251.43	1253.36
251.64	1236.97
251.86	1306.60
252.07	1286.12
252.29	1243.12
252.50	1208.30
252.72	1247.21
252.93	1247.21
253.15	1261.55
253.36	1251.31
253.58	1308.65
253.79	1298.41
254.01	1298.41
254.22	1300.46
254.44	1277.93
254.65	1228.78
254.87	1273.84
255.08	1302.51
255.30	1286.12
255.51	1228.78
255.73	1269.74
255.94	1284.08
256.16	1294.32
256.37	1230.83
256.59	1236.97
256.80	1236.97
257.02	1241.07
257.23	1232.88
257.45	1316.84
257.66	1288.17
257.88	1269.74
258.09	1241.07
258.31	1329.13
258.52	1251.31
258.74	1308.65
258.95	1331.18
259.16	1228.78
259.38	1267.69
259.59	1331.18
259.81	1228.78
260.02	1327.08
260.24	1282.03
260.45	1265.64
260.67	1234.93
260.88	1316.84
261.10	1284.08
261.31	1236.97
261.53	1228.78
261.74	1236.97
261.96	1294.32
262.17	1224.69
262.39	1294.32
262.60	1222.64
262.81	1290.22
263.03	1353.71
263.24	1279.98
263.46	1331.18
263.67	1372.14
263.89	1267.69
264.10	1267.69
264.32	1288.17
264.53	1318.89
264.75	1294.32
264.96	1261.55
265.17	1234.93
265.39	1251.31
265.60	1282.03
265.82	1224.69
266.03	1249.26
266.25	1363.95
266.46	1187.82
266.68	1300.46
266.89	1275.88
267.10	1243.12
267.32	1306.60
267.53	1306.60
267.75	1257.45
267.96	1290.22
268.18	1343.47
268.39	1294.32
268.61	1222.64
268.82	1300.46
269.03	1296.36
269.25	1286.12
269.46	1247.21
269.68	1284.08
269.89	1269.74
270.11	1320.94
270.32	1357.80
270.53	1279.98
270.75	1284.08
270.96	1277.93
271.18	1351.66
271.39	1279.98
271.60	1349.61
271.82	1300.46
272.03	1236.97
272.25	1302.51
272.46	1273.84
272.68	1282.03
272.89	1251.31
273.10	1288.17
273.32	1341.42
273.53	1292.27
273.75	1200.11
273.96	1243.12
274.17	1284.08
274.39	1308.65
274.60	1308.65
274.82	1294.32
275.03	1306.60
275.24	1320.94
275.46	1259.50
275.67	1265.64
275.89	1294.32
276.10	1310.70
276.31	1359.85
276.53	1251.31
276.74	1318.89
276.96	1253.36
277.17	1210.35
277.38	1312.75
277.60	1275.88
277.81	1243.12
278.02	1347.56
278.24	1259.50
278.45	1265.64
278.67	1261.55
278.88	1298.41
279.09	1253.36
279.31	1257.45
279.52	1353.71
279.73	1302.51
279.95	1220.59
280.16	1290.22
280.38	1339.37
280.59	1339.37
280.80	1243.12
281.02	1232.88
281.23	1316.84
281.44	1286.12
281.66	1288.17
281.87	1284.08
282.09	1284.08
282.30	1277.93
282.51	1290.22
282.73	1288.17
282.94	1314.80
283.15	1292.27
283.37	1296.36
283.58	1382.38
283.79	1304.56
284.01	1288.17
284.22	1400.81
284.43	1333.23
284.65	1382.38
284.86	1325.04
285.07	1359.85
285.29	1331.18
285.50	1361.90
285.72	1374.19
285.93	1337.32
286.14	1366.00
286.36	1454.06
286.57	1402.86
286.78	1390.57
287.00	1431.53
287.21	1503.21
287.42	1515.50
287.64	1490.92
287.85	1566.70
288.06	1437.67
288.28	1507.30
288.49	1603.56
288.70	1556.46
288.92	1552.36
289.13	1613.80
289.34	1597.42
289.56	1732.58
289.77	1595.37
289.98	1552.36
290.19	1679.33
290.41	1609.70
290.62	1634.28
290.83	1753.06
291.05	1665.00
291.26	1708.01
291.47	1708.01
291.69	1738.73
291.90	1691.62
292.11	1753.06
292.33	1822.69
292.54	1814.50
292.75	1804.26
292.97	1910.75
293.18	1972.19
293.39	1970.15
293.60	2021.35
293.82	2127.84
294.03	2181.09
294.24	2285.53
294.46	2361.31
294.67	2439.13
294.88	2357.21
295.10	2611.16
295.31	2590.68
295.52	2674.65
295.73	2697.17
295.95	2772.95
296.16	2975.70
296.37	2955.22
296.59	3065.81
296.80	3100.62
297.01	3198.93
297.22	3194.83
297.44	3348.43
297.65	3381.20
297.86	3508.17
298.08	3577.80
298.29	3567.56
298.50	3581.90
298.71	3784.65
298.93	3610.57
299.14	3745.73
299.35	3897.28
299.56	3866.56
299.78	3950.53
299.99	4001.73
300.20	3993.54
300.42	4036.55
300.63	4108.23
300.84	4124.61
301.05	4114.37
301.27	4169.66
301.48	4231.10
301.69	4337.60
301.90	4259.78
302.12	4364.22
302.33	4362.17
302.54	4235.20
302.75	4603.83
302.97	4483.00
303.18	4454.33
303.39	4564.92
303.60	4612.03
303.82	4607.93
304.03	4620.22
304.24	4726.71
304.45	4648.89
304.67	4837.30
304.88	4958.13
305.09	4741.05
305.30	4827.06
305.52	4865.97
305.73	4941.75
305.94	4941.75
306.15	4986.80
306.37	4927.41
306.58	5054.39
306.79	5023.67
307.00	5033.91
307.22	5048.24
307.43	5130.16
307.64	5115.83
307.85	5087.15
308.06	5081.01
308.28	5160.88
308.49	5261.23
308.70	5248.94
308.91	5242.80
309.13	5351.34
309.34	5339.05
309.55	5449.64
309.76	5332.91
309.97	5302.19
310.19	5394.35
310.40	5445.55
310.61	5517.23
310.82	5593.00
311.04	5525.42
311.25	5418.93
311.46	5590.95
311.67	5629.87
311.88	5652.39
312.10	5638.06
312.31	5623.72
312.52	5599.15
312.73	5554.09
312.94	5580.71
313.16	5836.71
313.37	5679.02
313.58	5816.23
313.79	5750.70
314.00	5836.71
314.22	5638.06
314.43	6029.22
314.64	5844.90
314.85	5783.46
315.06	5992.36
315.27	5937.06
315.49	6090.66
315.70	6049.70
315.91	5932.97
316.12	5978.02
316.33	6229.92
316.55	6092.71
316.76	5900.20
316.97	6123.43
317.18	6107.04
317.39	6104.99
317.60	6107.04
317.82	6238.11
318.03	6197.15
318.24	6223.78
318.45	6150.05
318.66	6205.35
318.88	6350.75
319.09	6332.32
319.30	6320.03
319.51	6317.98
319.72	6422.43
319.93	6479.77
320.15	6408.09
320.36	6438.81
320.57	6299.55
320.78	6461.34
320.99	6414.24
321.20	6614.94
321.41	6299.55
321.63	6506.40
321.84	6569.88
322.05	6252.45
322.26	6459.29
322.47	6629.27
322.68	6367.13
322.90	6475.68
323.11	6375.33
323.32	6676.38
323.53	6526.88
323.74	6483.87
323.95	6465.44
324.16	6518.68
324.38	6659.99
324.59	6604.70
324.80	6758.30
325.01	6641.56
325.22	6662.04
325.43	6614.94
325.64	6668.19
325.85	6545.31
326.07	6561.69
326.28	6563.74
326.49	6662.04
326.70	6543.26
326.91	6557.60
327.12	6354.85
327.33	6369.18
327.54	6602.65
327.76	6303.65
327.97	6391.71
328.18	6381.47
328.39	6234.02
328.60	6272.93
328.81	6225.82
329.02	6348.70
329.23	6569.88
329.45	6459.29
329.66	6653.85
329.87	6565.79
330.08	6653.85
330.29	6559.64
330.50	6547.36
330.71	6576.03
330.92	6655.90
331.13	6889.37
331.34	6778.78
331.56	7155.60
331.77	7045.01
331.98	7384.98
332.19	7241.62
332.40	7493.52
332.61	7243.67
332.82	7370.64
333.03	7290.77
333.24	7159.70
333.45	6866.84
333.67	6850.46
333.88	6754.20
334.09	6803.35
334.30	6918.04
334.51	6991.77
334.72	6762.39
334.93	6905.75
335.14	6858.65
335.35	6803.35
335.56	6772.63
335.77	6913.94
335.98	7018.39
336.19	6889.37
336.41	6995.86
336.62	6768.54
336.83	6784.92
337.04	6817.69
337.25	6983.57
337.46	6860.70
337.67	6770.58
337.88	6883.22
338.09	6983.57
338.30	6934.42
338.51	6922.13
338.72	6875.03
338.93	6889.37
339.14	6934.42
339.35	7026.58
339.57	6983.57
339.78	7098.26
339.99	7036.82
340.20	6975.38
340.41	7002.01
340.62	7073.68
340.83	6918.04
341.04	7010.20
341.25	6952.85
341.46	6887.32
341.67	6950.81
341.88	7143.32
342.09	7040.92
342.30	6950.81
342.51	7036.82
342.72	7077.78
342.93	7120.79
343.14	7288.72
343.35	6954.90
343.56	7393.17
343.77	7063.44
343.98	7002.01
344.19	7092.12
344.41	6940.57
344.62	6938.52
344.83	6981.53
345.04	7114.64
345.25	6987.67
345.46	7167.89
345.67	7167.89
345.88	7137.17
346.09	7096.21
346.30	7034.77
346.51	7231.38
346.72	7065.49
346.93	7225.23
347.14	7192.47
347.35	7178.13
347.56	6834.07
347.77	7178.13
347.98	7208.85
348.19	6981.53
348.40	7292.82
348.61	7208.85
348.82	7083.92
349.03	7024.53
349.24	7020.44
349.45	7047.06
349.66	7120.79
349.87	7186.32
350.08	7004.05
350.29	7133.08
350.50	7032.72
350.71	6877.08
350.92	7088.02
351.13	7045.01
351.34	6995.86
351.55	7063.44
351.76	6854.55
351.97	6778.78
352.18	6946.71
352.39	6918.04
352.60	6946.71
352.81	6903.70
353.02	7022.48
353.23	6985.62
353.44	6987.67
353.65	7049.11
353.86	7010.20
354.07	6979.48
354.28	6870.94
354.49	7032.72
354.70	6971.29
354.90	6975.38
355.11	6942.61
355.32	7034.77
355.53	6854.55
355.74	6948.76
355.95	6696.86
356.16	6961.05
356.37	6995.86
356.58	6868.89
356.79	6903.70
357.00	7045.01
357.21	6975.38
357.42	7141.27
357.63	6948.76
357.84	7139.22
358.05	6825.88
358.26	7182.23
358.47	7083.92
358.68	7122.84
358.89	7112.60
359.10	6829.98
359.31	7079.83
359.52	7049.11
359.73	7122.84
359.93	7145.36
360.14	7112.60
360.35	7266.19
360.56	7051.16
360.77	7174.03
360.98	7124.88
361.19	7163.79
361.40	7258.00
361.61	7356.30
361.82	7192.47
362.03	7243.67
362.24	7243.67
362.45	7292.82
362.66	7249.81
362.87	7210.90
363.07	7235.47
363.28	7470.99
363.49	7098.26
363.70	7202.71
363.91	7311.25
364.12	7387.02
364.33	7450.51
364.54	7661.45
364.75	7487.37
364.96	7403.41
365.17	7516.05
365.38	7634.83
365.58	7581.58
365.79	7489.42
366.00	7659.40
366.21	7509.90
366.42	7573.39
366.63	7606.16
366.84	7810.95
367.05	7669.64
367.26	7677.83
367.47	7380.88
367.67	7726.99
367.88	7690.12
368.09	7511.95
368.30	7647.12
368.51	7702.41
368.72	7669.64
368.93	7622.54
369.14	7450.51
369.35	7567.24
369.56	7688.07
369.76	7514.00
369.97	7602.06
370.18	7376.78
370.39	7538.57
370.60	7434.13
370.81	7581.58
371.02	7563.15
371.23	7530.38
371.43	7260.05
371.64	7552.91
371.85	7360.40
372.06	7430.03
372.27	7567.24
372.48	7470.99
372.69	7724.94
372.90	7663.50
373.10	7516.05
373.31	7634.83
373.52	7569.29
373.73	7526.29
373.94	7667.60
374.15	7739.27
374.36	7606.16
374.56	7759.75
374.77	7763.85
374.98	7518.09
375.19	7640.97
375.40	7640.97
375.61	7778.19
375.82	7888.78
376.02	7704.46
376.23	7851.91
376.44	7856.01
376.65	7673.74
376.86	7845.77
377.07	7767.95
377.28	7929.74
377.48	8056.71
377.69	7880.58
377.90	8077.19
378.11	8126.34
378.32	8023.94
378.53	7948.17
378.73	7888.78
378.94	7841.67
379.15	8042.37
379.36	8040.33
379.57	8148.87
379.78	7858.06
379.98	7720.84
380.19	7853.96
380.40	7806.86
380.61	7747.47
380.82	7696.27
381.03	7671.69
381.23	7901.06
381.44	7858.06
381.65	8073.09
381.86	7782.28
382.07	7696.27
382.27	7933.83
382.48	7868.30
382.69	7716.75
382.90	7726.99
383.11	7915.40
383.32	7606.16
383.52	7997.32
383.73	7724.94
383.94	7815.05
384.15	7862.15
384.36	7606.16
384.56	7714.70
384.77	7876.49
384.98	7800.71
385.19	7776.14
385.40	7546.76
385.60	7772.04
385.81	7831.43
386.02	7759.75
386.23	7823.24
386.43	7782.28
386.64	8032.13
386.85	7872.39
387.06	7919.50
387.27	8052.61
387.47	8003.46
387.68	7880.58
387.89	7931.78
388.10	7733.13
388.31	8220.55
388.51	8032.13
388.72	7960.45
388.93	7784.33
389.14	7800.71
389.34	7819.14
389.55	7759.75
389.76	7524.24
389.97	7720.84
390.18	7907.21
390.38	8095.62
390.59	7851.91
390.80	7935.88
391.01	8030.09
391.21	8093.57
391.42	8243.07
391.63	8275.84
391.84	8124.29
392.04	8419.20
392.25	8433.54
392.46	8146.82
392.67	8406.91
392.87	8066.95
393.08	7815.05
393.29	8019.85
393.50	8157.06
393.70	8087.43
393.91	7950.21
394.12	7950.21
394.33	7763.85
394.53	7753.61
394.74	7788.43
394.95	7790.47
395.16	8044.42
395.36	7602.06
395.57	7749.51
395.78	7645.07
395.99	7784.33
396.19	8101.76
396.40	7886.73
396.61	8042.37
396.81	7866.25
397.02	8198.02
397.23	8241.03
397.44	8560.51
397.64	8499.07
397.85	8511.36
398.06	8433.54
398.27	8318.85
398.47	8343.42
398.68	8003.46
398.89	8019.85
399.09	7997.32
399.30	7894.92
399.51	8169.35
399.72	8036.23
399.92	8171.40
400.13	7911.30
400.34	7737.23
400.54	7796.62
400.75	8167.30
400.96	7956.36
401.17	8142.72
401.37	7923.59
401.58	8034.18
401.79	7841.67
401.99	8093.57
402.20	8101.76
402.41	7911.30
402.61	7847.82
402.82	8019.85
403.03	7837.58
403.24	7686.03
403.44	7806.86
403.65	7700.36
403.86	8267.65
404.06	8271.75
404.27	7882.63
404.48	7933.83
404.68	8226.69
404.89	8142.72
405.10	8136.58
405.30	8054.66
405.51	7798.66
405.72	7870.34
405.92	7645.07
406.13	7868.30
406.34	7927.69
406.54	7868.30
406.75	7767.95
406.96	7815.05
407.16	8265.60
407.37	8185.73
407.58	8126.34
407.78	7935.88
407.99	8175.49
408.20	8339.33
408.40	8191.88
408.61	7946.12
408.82	8032.13
409.02	7931.78
409.23	8071.04
409.44	8216.45
409.64	7743.37
409.85	7958.41
410.06	7749.51
410.26	8003.46
410.47	8032.13
410.68	7819.14
410.88	8300.42
411.09	8071.04
411.30	8224.64
411.50	7952.26
411.71	8011.65
411.91	8308.61
412.12	8083.33
412.33	8273.79
412.53	7810.95
412.74	8130.44
412.95	8187.78
413.15	8449.92
413.36	8036.23
413.57	7917.45
413.77	7843.72
413.98	8136.58
414.18	8036.23
414.39	7864.20
414.60	7823.24
414.80	8177.54
415.01	7837.58
415.22	8036.23
415.42	7993.22
415.63	7921.54
415.83	7872.39
416.04	7606.16
416.25	7769.99
416.45	7974.79
416.66	7679.88
416.86	7962.50
417.07	8097.67
417.28	8001.41
417.48	7843.72
417.69	7872.39
417.89	7966.60
418.10	7628.68
418.31	8189.83
418.51	7970.69
418.72	8230.79
418.92	7761.80
419.13	8013.70
419.34	8138.63
419.54	8281.99
419.75	8187.78
419.95	8345.47
420.16	8179.59
420.37	8470.40
420.57	8585.08
420.78	8480.64
420.98	8611.71
421.19	8777.59
421.40	8513.41
421.60	8327.04
421.81	8281.99
422.01	8245.12
422.22	8232.83
422.42	8148.87
422.63	8275.84
422.84	8011.65
423.04	7821.19
423.25	8009.61
423.45	7960.45
423.66	8064.90
423.86	8085.38
424.07	8306.56
424.28	8580.99
424.48	8288.13
424.69	8069.00
424.89	8052.61
425.10	8114.05
425.30	7864.20
425.51	7561.10
425.72	7870.34
425.92	7735.18
426.13	7624.59
426.33	7917.45
426.54	8245.12
426.74	7944.07
426.95	7939.97
427.15	7935.88
427.36	8198.02
427.56	7829.38
427.77	8249.22
427.98	8169.35
428.18	8099.72
428.39	8503.17
428.59	8560.51
428.80	8458.11
429.00	8916.86
429.21	8890.23
429.41	8617.85
429.62	8894.33
429.82	9000.82
430.03	8746.87
430.23	8675.20
430.44	8902.52
430.65	8279.94
430.85	8789.88
431.06	8384.38
431.26	8339.33
431.47	7876.49
431.67	8253.31
431.88	8095.62
432.08	8109.96
432.29	7933.83
432.49	8204.16
432.70	7837.58
432.90	7804.81
433.11	7952.26
433.31	8122.24
433.52	8073.09
433.72	7819.14
433.93	7952.26
434.13	8130.44
434.34	8103.81
