SpectraSuite Data File
++++++++++++++++++++++++++++++++++++
Date: Fri Jan 24 17:06:47 MST 2020
User: Molly
Dark Spectrum Present: Yes
Reference Spectrum Present: Yes
Number of Sampled Component Spectra: 1
Spectrometers: USB4E03280
Integration Time (usec): 32000 (USB4E03280)
Spectra Averaged: 1 (USB4E03280)
Boxcar Smoothing: 0 (USB4E03280)
Correct for Electrical Dark: No (USB4E03280)
Strobe/Lamp Enabled: Yes (USB4E03280)
Correct for Detector Non-linearity: No (USB4E03280)
Correct for Stray Light: No (USB4E03280)
Number of Pixels in Processed Spectrum: 3648
>>>>>Begin Processed Spectral Data<<<<<
177.66	1142.77
177.88	1142.77
178.10	1142.77
178.32	1165.29
178.54	1193.97
178.76	1247.21
178.98	1273.84
179.19	1196.01
179.41	1232.88
179.63	1269.74
179.85	1179.63
180.07	1314.80
180.29	1185.77
180.51	1228.78
180.72	1273.84
180.94	1216.49
181.16	1253.36
181.38	1249.26
181.60	1220.59
181.82	1159.15
182.04	1175.53
182.25	1251.31
182.47	1236.97
182.69	1302.51
182.91	1189.87
183.13	1222.64
183.35	1247.21
183.56	1234.93
183.78	1181.68
184.00	1185.77
184.22	1243.12
184.44	1218.54
184.66	1284.08
184.87	1247.21
185.09	1255.40
185.31	1269.74
185.53	1282.03
185.75	1269.74
185.97	1294.32
186.18	1185.77
186.40	1214.45
186.62	1210.35
186.84	1216.49
187.06	1236.97
187.28	1196.01
187.49	1214.45
187.71	1210.35
187.93	1282.03
188.15	1286.12
188.37	1288.17
188.59	1232.88
188.80	1150.96
189.02	1193.97
189.24	1339.37
189.46	1230.83
189.68	1245.16
189.89	1179.63
190.11	1187.82
190.33	1292.27
190.55	1275.88
190.77	1202.16
190.98	1220.59
191.20	1265.64
191.42	1222.64
191.64	1316.84
191.86	1218.54
192.07	1212.40
192.29	1196.01
192.51	1202.16
192.73	1234.93
192.95	1290.22
193.16	1212.40
193.38	1310.70
193.60	1163.25
193.82	1226.73
194.04	1228.78
194.25	1220.59
194.47	1212.40
194.69	1216.49
194.91	1228.78
195.13	1239.02
195.34	1171.44
195.56	1310.70
195.78	1257.45
196.00	1267.69
196.22	1251.31
196.43	1294.32
196.65	1206.25
196.87	1198.06
197.09	1257.45
197.30	1226.73
197.52	1245.16
197.74	1187.82
197.96	1249.26
198.18	1220.59
198.39	1273.84
198.61	1261.55
198.83	1257.45
199.05	1236.97
199.26	1226.73
199.48	1253.36
199.70	1216.49
199.92	1277.93
200.13	1234.93
200.35	1216.49
200.57	1247.21
200.79	1263.60
201.00	1228.78
201.22	1214.45
201.44	1327.08
201.66	1267.69
201.88	1222.64
202.09	1189.87
202.31	1245.16
202.53	1226.73
202.75	1150.96
202.96	1177.58
203.18	1179.63
203.40	1220.59
203.62	1257.45
203.83	1236.97
204.05	1288.17
204.27	1259.50
204.49	1212.40
204.70	1165.29
204.92	1253.36
205.14	1175.53
205.35	1208.30
205.57	1263.60
205.79	1239.02
206.01	1193.97
206.22	1196.01
206.44	1245.16
206.66	1230.83
206.88	1288.17
207.09	1234.93
207.31	1261.55
207.53	1239.02
207.75	1269.74
207.96	1228.78
208.18	1228.78
208.40	1273.84
208.61	1251.31
208.83	1236.97
209.05	1228.78
209.27	1263.60
209.48	1269.74
209.70	1206.25
209.92	1292.27
210.14	1236.97
210.35	1257.45
210.57	1234.93
210.79	1224.69
211.00	1257.45
211.22	1212.40
211.44	1282.03
211.66	1259.50
211.87	1269.74
212.09	1228.78
212.31	1220.59
212.52	1228.78
212.74	1251.31
212.96	1267.69
213.17	1284.08
213.39	1294.32
213.61	1226.73
213.83	1198.06
214.04	1183.73
214.26	1243.12
214.48	1222.64
214.69	1273.84
214.91	1236.97
215.13	1263.60
215.34	1232.88
215.56	1253.36
215.78	1271.79
216.00	1296.36
216.21	1273.84
216.43	1253.36
216.65	1214.45
216.86	1193.97
217.08	1253.36
217.30	1288.17
217.51	1251.31
217.73	1234.93
217.95	1189.87
218.16	1228.78
218.38	1216.49
218.60	1230.83
218.81	1261.55
219.03	1245.16
219.25	1198.06
219.46	1284.08
219.68	1208.30
219.90	1222.64
220.11	1277.93
220.33	1224.69
220.55	1169.39
220.76	1265.64
220.98	1157.10
221.20	1269.74
221.41	1206.25
221.63	1232.88
221.85	1261.55
222.06	1265.64
222.28	1208.30
222.50	1261.55
222.71	1247.21
222.93	1226.73
223.15	1292.27
223.36	1236.97
223.58	1239.02
223.80	1294.32
224.01	1144.81
224.23	1329.13
224.45	1245.16
224.66	1202.16
224.88	1208.30
225.10	1212.40
225.31	1150.96
225.53	1204.21
225.75	1253.36
225.96	1202.16
226.18	1208.30
226.39	1259.50
226.61	1265.64
226.83	1263.60
227.04	1210.35
227.26	1216.49
227.48	1216.49
227.69	1327.08
227.91	1234.93
228.13	1296.36
228.34	1322.99
228.56	1294.32
228.77	1163.25
228.99	1200.11
229.21	1239.02
229.42	1279.98
229.64	1206.25
229.86	1232.88
230.07	1198.06
230.29	1245.16
230.50	1245.16
230.72	1234.93
230.94	1243.12
231.15	1331.18
231.37	1234.93
231.58	1284.08
231.80	1302.51
232.02	1210.35
232.23	1261.55
232.45	1181.68
232.67	1265.64
232.88	1267.69
233.10	1286.12
233.31	1224.69
233.53	1220.59
233.75	1210.35
233.96	1230.83
234.18	1259.50
234.39	1212.40
234.61	1284.08
234.83	1292.27
235.04	1277.93
235.26	1204.21
235.47	1169.39
235.69	1275.88
235.91	1239.02
236.12	1228.78
236.34	1273.84
236.55	1232.88
236.77	1273.84
236.99	1267.69
237.20	1257.45
237.42	1269.74
237.63	1257.45
237.85	1216.49
238.06	1251.31
238.28	1169.39
238.50	1292.27
238.71	1257.45
238.93	1257.45
239.14	1204.21
239.36	1325.04
239.58	1245.16
239.79	1220.59
240.01	1273.84
240.22	1316.84
240.44	1183.73
240.65	1236.97
240.87	1228.78
241.09	1243.12
241.30	1140.72
241.52	1171.44
241.73	1273.84
241.95	1163.25
242.16	1179.63
242.38	1228.78
242.59	1269.74
242.81	1228.78
243.03	1267.69
243.24	1286.12
243.46	1218.54
243.67	1261.55
243.89	1208.30
244.10	1167.34
244.32	1269.74
244.53	1255.40
244.75	1241.07
244.97	1304.56
245.18	1247.21
245.40	1212.40
245.61	1226.73
245.83	1224.69
246.04	1277.93
246.26	1288.17
246.47	1214.45
246.69	1193.97
246.90	1214.45
247.12	1279.98
247.34	1245.16
247.55	1187.82
247.77	1226.73
247.98	1220.59
248.20	1218.54
248.41	1267.69
248.63	1257.45
248.84	1243.12
249.06	1218.54
249.27	1202.16
249.49	1161.20
249.70	1228.78
249.92	1206.25
250.13	1282.03
250.35	1228.78
250.56	1243.12
250.78	1267.69
251.00	1290.22
251.21	1202.16
251.43	1290.22
251.64	1318.89
251.86	1294.32
252.07	1273.84
252.29	1261.55
252.50	1204.21
252.72	1269.74
252.93	1161.20
253.15	1304.56
253.36	1181.68
253.58	1239.02
253.79	1247.21
254.01	1191.92
254.22	1232.88
254.44	1206.25
254.65	1196.01
254.87	1282.03
255.08	1273.84
255.30	1128.43
255.51	1253.36
255.73	1226.73
255.94	1179.63
256.16	1251.31
256.37	1265.64
256.59	1296.36
256.80	1206.25
257.02	1261.55
257.23	1232.88
257.45	1255.40
257.66	1263.60
257.88	1230.83
258.09	1279.98
258.31	1196.01
258.52	1224.69
258.74	1206.25
258.95	1232.88
259.16	1220.59
259.38	1239.02
259.59	1224.69
259.81	1163.25
260.02	1241.07
260.24	1271.79
260.45	1257.45
260.67	1253.36
260.88	1314.80
261.10	1185.77
261.31	1261.55
261.53	1210.35
261.74	1234.93
261.96	1275.88
262.17	1228.78
262.39	1220.59
262.60	1232.88
262.81	1284.08
263.03	1267.69
263.24	1214.45
263.46	1212.40
263.67	1222.64
263.89	1243.12
264.10	1247.21
264.32	1273.84
264.53	1251.31
264.75	1277.93
264.96	1218.54
265.17	1230.83
265.39	1243.12
265.60	1239.02
265.82	1286.12
266.03	1312.75
266.25	1314.80
266.46	1265.64
266.68	1267.69
266.89	1277.93
267.10	1177.58
267.32	1171.44
267.53	1257.45
267.75	1177.58
267.96	1269.74
268.18	1277.93
268.39	1269.74
268.61	1296.36
268.82	1134.57
269.03	1177.58
269.25	1236.97
269.46	1232.88
269.68	1159.15
269.89	1210.35
270.11	1255.40
270.32	1232.88
270.53	1255.40
270.75	1236.97
270.96	1206.25
271.18	1212.40
271.39	1312.75
271.60	1261.55
271.82	1279.98
272.03	1247.21
272.25	1228.78
272.46	1189.87
272.68	1181.68
272.89	1193.97
273.10	1241.07
273.32	1228.78
273.53	1193.97
273.75	1153.01
273.96	1236.97
274.17	1230.83
274.39	1310.70
274.60	1279.98
274.82	1302.51
275.03	1333.23
275.24	1202.16
275.46	1222.64
275.67	1300.46
275.89	1210.35
276.10	1331.18
276.31	1329.13
276.53	1214.45
276.74	1236.97
276.96	1218.54
277.17	1157.10
277.38	1247.21
277.60	1214.45
277.81	1196.01
278.02	1232.88
278.24	1245.16
278.45	1214.45
278.67	1177.58
278.88	1277.93
279.09	1206.25
279.31	1165.29
279.52	1271.79
279.73	1202.16
279.95	1185.77
280.16	1200.11
280.38	1267.69
280.59	1206.25
280.80	1241.07
281.02	1206.25
281.23	1208.30
281.44	1173.49
281.66	1198.06
281.87	1177.58
282.09	1187.82
282.30	1292.27
282.51	1220.59
282.73	1284.08
282.94	1214.45
283.15	1259.50
283.37	1228.78
283.58	1269.74
283.79	1187.82
284.01	1251.31
284.22	1294.32
284.43	1243.12
284.65	1228.78
284.86	1226.73
285.07	1310.70
285.29	1193.97
285.50	1218.54
285.72	1159.15
285.93	1187.82
286.14	1189.87
286.36	1331.18
286.57	1232.88
286.78	1288.17
287.00	1243.12
287.21	1218.54
287.42	1218.54
287.64	1220.59
287.85	1263.60
288.06	1191.92
288.28	1232.88
288.49	1214.45
288.70	1228.78
288.92	1298.41
289.13	1302.51
289.34	1247.21
289.56	1282.03
289.77	1243.12
289.98	1259.50
290.19	1212.40
290.41	1273.84
290.62	1159.15
290.83	1228.78
291.05	1148.91
291.26	1265.64
291.47	1202.16
291.69	1269.74
291.90	1206.25
292.11	1267.69
292.33	1241.07
292.54	1210.35
292.75	1228.78
292.97	1243.12
293.18	1198.06
293.39	1265.64
293.60	1196.01
293.82	1271.79
294.03	1228.78
294.24	1173.49
294.46	1243.12
294.67	1208.30
294.88	1228.78
295.10	1232.88
295.31	1169.39
295.52	1183.73
295.73	1146.86
295.95	1216.49
296.16	1210.35
296.37	1224.69
296.59	1230.83
296.80	1241.07
297.01	1241.07
297.22	1236.97
297.44	1130.48
297.65	1224.69
297.86	1210.35
298.08	1189.87
298.29	1273.84
298.50	1243.12
298.71	1230.83
298.93	1251.31
299.14	1265.64
299.35	1247.21
299.56	1241.07
299.78	1316.84
299.99	1245.16
300.20	1171.44
300.42	1204.21
300.63	1308.65
300.84	1310.70
301.05	1249.26
301.27	1236.97
301.48	1185.77
301.69	1288.17
301.90	1200.11
302.12	1116.14
302.33	1345.52
302.54	1234.93
302.75	1263.60
302.97	1230.83
303.18	1265.64
303.39	1210.35
303.60	1247.21
303.82	1261.55
304.03	1345.52
304.24	1187.82
304.45	1187.82
304.67	1271.79
304.88	1236.97
305.09	1214.45
305.30	1198.06
305.52	1212.40
305.73	1284.08
305.94	1232.88
306.15	1255.40
306.37	1239.02
306.58	1236.97
306.79	1230.83
307.00	1277.93
307.22	1204.21
307.43	1210.35
307.64	1263.60
307.85	1236.97
308.06	1222.64
308.28	1284.08
308.49	1230.83
308.70	1181.68
308.91	1245.16
309.13	1284.08
309.34	1245.16
309.55	1277.93
309.76	1261.55
309.97	1259.50
310.19	1181.68
310.40	1224.69
310.61	1189.87
310.82	1185.77
311.04	1181.68
311.25	1271.79
311.46	1241.07
311.67	1251.31
311.88	1288.17
312.10	1236.97
312.31	1234.93
312.52	1230.83
312.73	1263.60
312.94	1228.78
313.16	1284.08
313.37	1218.54
313.58	1196.01
313.79	1196.01
314.00	1169.39
314.22	1202.16
314.43	1214.45
314.64	1202.16
314.85	1216.49
315.06	1241.07
315.27	1271.79
315.49	1261.55
315.70	1179.63
315.91	1245.16
316.12	1191.92
316.33	1298.41
316.55	1271.79
316.76	1206.25
316.97	1148.91
317.18	1243.12
317.39	1249.26
317.60	1335.28
317.82	1153.01
318.03	1181.68
318.24	1234.93
318.45	1288.17
318.66	1273.84
318.88	1173.49
319.09	1202.16
319.30	1290.22
319.51	1298.41
319.72	1257.45
319.93	1202.16
320.15	1175.53
320.36	1224.69
320.57	1275.88
320.78	1290.22
320.99	1300.46
321.20	1284.08
321.41	1224.69
321.63	1204.21
321.84	1220.59
322.05	1236.97
322.26	1312.75
322.47	1224.69
322.68	1255.40
322.90	1241.07
323.11	1253.36
323.32	1144.81
323.53	1245.16
323.74	1245.16
323.95	1198.06
324.16	1279.98
324.38	1302.51
324.59	1308.65
324.80	1228.78
325.01	1157.10
325.22	1320.94
325.43	1241.07
325.64	1273.84
325.85	1277.93
326.07	1161.20
326.28	1185.77
326.49	1210.35
326.70	1239.02
326.91	1279.98
327.12	1312.75
327.33	1236.97
327.54	1267.69
327.76	1271.79
327.97	1265.64
328.18	1277.93
328.39	1241.07
328.60	1230.83
328.81	1165.29
329.02	1296.36
329.23	1142.77
329.45	1212.40
329.66	1294.32
329.87	1279.98
330.08	1341.42
330.29	1198.06
330.50	1257.45
330.71	1247.21
330.92	1253.36
331.13	1253.36
331.34	1282.03
331.56	1181.68
331.77	1212.40
331.98	1255.40
332.19	1251.31
332.40	1218.54
332.61	1173.49
332.82	1220.59
333.03	1218.54
333.24	1265.64
333.45	1269.74
333.67	1226.73
333.88	1206.25
334.09	1208.30
334.30	1232.88
334.51	1265.64
334.72	1263.60
334.93	1163.25
335.14	1230.83
335.35	1282.03
335.56	1228.78
335.77	1177.58
335.98	1300.46
336.19	1222.64
336.41	1236.97
336.62	1296.36
336.83	1212.40
337.04	1282.03
337.25	1226.73
337.46	1257.45
337.67	1267.69
337.88	1245.16
338.09	1185.77
338.30	1216.49
338.51	1200.11
338.72	1187.82
338.93	1234.93
339.14	1300.46
339.35	1269.74
339.57	1206.25
339.78	1218.54
339.99	1222.64
340.20	1273.84
340.41	1234.93
340.62	1294.32
340.83	1288.17
341.04	1286.12
341.25	1243.12
341.46	1286.12
341.67	1208.30
341.88	1255.40
342.09	1218.54
342.30	1196.01
342.51	1214.45
342.72	1212.40
342.93	1179.63
343.14	1265.64
343.35	1222.64
343.56	1193.97
343.77	1185.77
343.98	1206.25
344.19	1308.65
344.41	1234.93
344.62	1173.49
344.83	1165.29
345.04	1241.07
345.25	1230.83
345.46	1245.16
345.67	1136.62
345.88	1275.88
346.09	1208.30
346.30	1236.97
346.51	1265.64
346.72	1165.29
346.93	1267.69
347.14	1241.07
347.35	1189.87
347.56	1230.83
347.77	1189.87
347.98	1259.50
348.19	1200.11
348.40	1222.64
348.61	1318.89
348.82	1228.78
349.03	1214.45
349.24	1157.10
349.45	1222.64
349.66	1253.36
349.87	1271.79
350.08	1279.98
350.29	1241.07
350.50	1155.05
350.71	1259.50
350.92	1220.59
351.13	1234.93
351.34	1226.73
351.55	1294.32
351.76	1245.16
351.97	1286.12
352.18	1202.16
352.39	1146.86
352.60	1228.78
352.81	1267.69
353.02	1245.16
353.23	1218.54
353.44	1189.87
353.65	1251.31
353.86	1343.47
354.07	1249.26
354.28	1210.35
354.49	1153.01
354.70	1232.88
354.90	1314.80
355.11	1189.87
355.32	1314.80
355.53	1212.40
355.74	1206.25
355.95	1253.36
356.16	1191.92
356.37	1249.26
356.58	1167.34
356.79	1228.78
357.00	1292.27
357.21	1243.12
357.42	1241.07
357.63	1216.49
357.84	1212.40
358.05	1236.97
358.26	1218.54
358.47	1226.73
358.68	1269.74
358.89	1228.78
359.10	1273.84
359.31	1220.59
359.52	1181.68
359.73	1261.55
359.93	1171.44
360.14	1267.69
360.35	1185.77
360.56	1200.11
360.77	1202.16
360.98	1335.28
361.19	1249.26
361.40	1273.84
361.61	1200.11
361.82	1284.08
362.03	1187.82
362.24	1202.16
362.45	1253.36
362.66	1228.78
362.87	1181.68
363.07	1279.98
363.28	1247.21
363.49	1300.46
363.70	1224.69
363.91	1257.45
364.12	1189.87
364.33	1265.64
364.54	1271.79
364.75	1298.41
364.96	1286.12
365.17	1245.16
365.38	1183.73
365.58	1200.11
365.79	1241.07
366.00	1271.79
366.21	1251.31
366.42	1198.06
366.63	1232.88
366.84	1265.64
367.05	1228.78
367.26	1329.13
367.47	1171.44
367.67	1220.59
367.88	1193.97
368.09	1265.64
368.30	1255.40
368.51	1282.03
368.72	1253.36
368.93	1247.21
369.14	1275.88
369.35	1333.23
369.56	1302.51
369.76	1267.69
369.97	1284.08
370.18	1300.46
370.39	1202.16
370.60	1224.69
370.81	1232.88
371.02	1243.12
371.23	1269.74
371.43	1251.31
371.64	1275.88
371.85	1228.78
372.06	1206.25
372.27	1210.35
372.48	1259.50
372.69	1241.07
372.90	1273.84
373.10	1216.49
373.31	1288.17
373.52	1249.26
373.73	1253.36
373.94	1259.50
374.15	1265.64
374.36	1161.20
374.56	1208.30
374.77	1282.03
374.98	1308.65
375.19	1224.69
375.40	1159.15
375.61	1259.50
375.82	1224.69
376.02	1251.31
376.23	1222.64
376.44	1269.74
376.65	1204.21
376.86	1157.10
377.07	1236.97
377.28	1267.69
377.48	1232.88
377.69	1292.27
377.90	1232.88
378.11	1239.02
378.32	1183.73
378.53	1230.83
378.73	1222.64
378.94	1277.93
379.15	1230.83
379.36	1243.12
379.57	1282.03
379.78	1212.40
379.98	1175.53
380.19	1228.78
380.40	1290.22
380.61	1159.15
380.82	1255.40
381.03	1277.93
381.23	1099.76
381.44	1228.78
381.65	1173.49
381.86	1292.27
382.07	1204.21
382.27	1263.60
382.48	1157.10
382.69	1294.32
382.90	1261.55
383.11	1241.07
383.32	1290.22
383.52	1294.32
383.73	1302.51
383.94	1284.08
384.15	1236.97
384.36	1224.69
384.56	1181.68
384.77	1271.79
384.98	1253.36
385.19	1247.21
385.40	1273.84
385.60	1290.22
385.81	1220.59
386.02	1269.74
386.23	1230.83
386.43	1247.21
386.64	1322.99
386.85	1245.16
387.06	1171.44
387.27	1236.97
387.47	1183.73
387.68	1261.55
387.89	1269.74
388.10	1226.73
388.31	1230.83
388.51	1241.07
388.72	1230.83
388.93	1234.93
389.14	1259.50
389.34	1243.12
389.55	1224.69
389.76	1177.58
389.97	1292.27
390.18	1136.62
390.38	1300.46
390.59	1273.84
390.80	1175.53
391.01	1288.17
391.21	1234.93
391.42	1275.88
391.63	1230.83
391.84	1245.16
392.04	1187.82
392.25	1228.78
392.46	1263.60
392.67	1257.45
392.87	1241.07
393.08	1218.54
393.29	1290.22
393.50	1196.01
393.70	1220.59
393.91	1169.39
394.12	1265.64
394.33	1191.92
394.53	1224.69
394.74	1206.25
394.95	1214.45
395.16	1206.25
395.36	1208.30
395.57	1202.16
395.78	1265.64
395.99	1228.78
396.19	1185.77
396.40	1212.40
396.61	1163.25
396.81	1155.05
397.02	1249.26
397.23	1275.88
397.44	1284.08
397.64	1218.54
397.85	1226.73
398.06	1163.25
398.27	1146.86
398.47	1259.50
398.68	1253.36
398.89	1290.22
399.09	1191.92
399.30	1230.83
399.51	1210.35
399.72	1206.25
399.92	1165.29
400.13	1218.54
400.34	1132.53
400.54	1224.69
400.75	1222.64
400.96	1282.03
401.17	1210.35
401.37	1239.02
401.58	1249.26
401.79	1212.40
401.99	1269.74
402.20	1198.06
402.41	1187.82
402.61	1273.84
402.82	1239.02
403.03	1329.13
403.24	1204.21
403.44	1198.06
403.65	1204.21
403.86	1243.12
404.06	1294.32
404.27	1202.16
404.48	1171.44
404.68	1294.32
404.89	1312.75
405.10	1191.92
405.30	1222.64
405.51	1247.21
405.72	1245.16
405.92	1230.83
406.13	1234.93
406.34	1329.13
406.54	1239.02
406.75	1263.60
406.96	1226.73
407.16	1155.05
407.37	1267.69
407.58	1322.99
407.78	1208.30
407.99	1163.25
408.20	1202.16
408.40	1249.26
408.61	1212.40
408.82	1255.40
409.02	1267.69
409.23	1212.40
409.44	1288.17
409.64	1261.55
409.85	1255.40
410.06	1167.34
410.26	1230.83
410.47	1187.82
410.68	1261.55
410.88	1208.30
411.09	1247.21
411.30	1226.73
411.50	1282.03
411.71	1249.26
411.91	1214.45
412.12	1257.45
412.33	1218.54
412.53	1300.46
412.74	1208.30
412.95	1269.74
413.15	1206.25
413.36	1212.40
413.57	1204.21
413.77	1218.54
413.98	1208.30
414.18	1249.26
414.39	1222.64
414.60	1325.04
414.80	1247.21
415.01	1214.45
415.22	1220.59
415.42	1169.39
415.63	1300.46
415.83	1236.97
416.04	1261.55
416.25	1196.01
416.45	1210.35
416.66	1226.73
416.86	1245.16
417.07	1204.21
417.28	1216.49
417.48	1216.49
417.69	1241.07
417.89	1263.60
418.10	1275.88
418.31	1245.16
418.51	1220.59
418.72	1228.78
418.92	1284.08
419.13	1198.06
419.34	1236.97
419.54	1282.03
419.75	1200.11
419.95	1300.46
420.16	1261.55
420.37	1218.54
420.57	1202.16
420.78	1193.97
420.98	1245.16
421.19	1224.69
421.40	1292.27
421.60	1187.82
421.81	1239.02
422.01	1294.32
422.22	1230.83
422.42	1273.84
422.63	1157.10
422.84	1255.40
423.04	1273.84
423.25	1255.40
423.45	1230.83
423.66	1183.73
423.86	1187.82
424.07	1300.46
424.28	1210.35
424.48	1198.06
424.69	1253.36
424.89	1263.60
425.10	1226.73
425.30	1214.45
425.51	1189.87
425.72	1275.88
425.92	1234.93
426.13	1187.82
426.33	1187.82
426.54	1226.73
426.74	1232.88
426.95	1259.50
427.15	1234.93
427.36	1257.45
427.56	1126.38
427.77	1173.49
427.98	1202.16
428.18	1183.73
428.39	1255.40
428.59	1275.88
428.80	1212.40
429.00	1267.69
429.21	1224.69
429.41	1234.93
429.62	1255.40
429.82	1269.74
430.03	1255.40
430.23	1191.92
430.44	1200.11
430.65	1183.73
430.85	1241.07
431.06	1187.82
431.26	1222.64
431.47	1210.35
431.67	1222.64
431.88	1247.21
432.08	1187.82
432.29	1161.20
432.49	1226.73
432.70	1259.50
432.90	1249.26
433.11	1316.84
433.31	1261.55
433.52	1163.25
433.72	1230.83
433.93	1257.45
434.13	1216.49
434.34	1142.77
