SpectraSuite Data File
++++++++++++++++++++++++++++++++++++
Date: Fri Jan 24 16:50:08 MST 2020
User: Molly
Dark Spectrum Present: Yes
Reference Spectrum Present: Yes
Number of Sampled Component Spectra: 1
Spectrometers: USB4E03280
Integration Time (usec): 32000 (USB4E03280)
Spectra Averaged: 1 (USB4E03280)
Boxcar Smoothing: 0 (USB4E03280)
Correct for Electrical Dark: No (USB4E03280)
Strobe/Lamp Enabled: Yes (USB4E03280)
Correct for Detector Non-linearity: No (USB4E03280)
Correct for Stray Light: No (USB4E03280)
Number of Pixels in Processed Spectrum: 3648
>>>>>Begin Processed Spectral Data<<<<<
177.66	1177.58
177.88	1177.58
178.10	1177.58
178.32	1216.49
178.54	1269.74
178.76	1200.11
178.98	1253.36
179.19	1181.68
179.41	1187.82
179.63	1255.40
179.85	1173.49
180.07	1173.49
180.29	1234.93
180.51	1175.53
180.72	1163.25
180.94	1228.78
181.16	1167.34
181.38	1239.02
181.60	1308.65
181.82	1232.88
182.04	1271.79
182.25	1245.16
182.47	1288.17
182.69	1241.07
182.91	1216.49
183.13	1189.87
183.35	1282.03
183.56	1290.22
183.78	1271.79
184.00	1228.78
184.22	1286.12
184.44	1191.92
184.66	1282.03
184.87	1234.93
185.09	1210.35
185.31	1284.08
185.53	1308.65
185.75	1265.64
185.97	1267.69
186.18	1251.31
186.40	1191.92
186.62	1292.27
186.84	1349.61
187.06	1267.69
187.28	1253.36
187.49	1232.88
187.71	1368.04
187.93	1312.75
188.15	1228.78
188.37	1318.89
188.59	1241.07
188.80	1306.60
189.02	1210.35
189.24	1339.37
189.46	1308.65
189.68	1247.21
189.89	1245.16
190.11	1202.16
190.33	1228.78
190.55	1251.31
190.77	1269.74
190.98	1202.16
191.20	1239.02
191.42	1282.03
191.64	1300.46
191.86	1267.69
192.07	1322.99
192.29	1187.82
192.51	1249.26
192.73	1284.08
192.95	1292.27
193.16	1212.40
193.38	1290.22
193.60	1273.84
193.82	1290.22
194.04	1245.16
194.25	1257.45
194.47	1241.07
194.69	1214.45
194.91	1271.79
195.13	1181.68
195.34	1208.30
195.56	1265.64
195.78	1327.08
196.00	1284.08
196.22	1263.60
196.43	1247.21
196.65	1243.12
196.87	1282.03
197.09	1245.16
197.30	1206.25
197.52	1224.69
197.74	1181.68
197.96	1292.27
198.18	1228.78
198.39	1265.64
198.61	1155.05
198.83	1243.12
199.05	1204.21
199.26	1306.60
199.48	1241.07
199.70	1259.50
199.92	1275.88
200.13	1298.41
200.35	1294.32
200.57	1239.02
200.79	1284.08
201.00	1224.69
201.22	1269.74
201.44	1265.64
201.66	1234.93
201.88	1267.69
202.09	1255.40
202.31	1302.51
202.53	1253.36
202.75	1247.21
202.96	1267.69
203.18	1257.45
203.40	1236.97
203.62	1265.64
203.83	1325.04
204.05	1206.25
204.27	1243.12
204.49	1300.46
204.70	1210.35
204.92	1220.59
205.14	1216.49
205.35	1320.94
205.57	1286.12
205.79	1259.50
206.01	1216.49
206.22	1257.45
206.44	1273.84
206.66	1292.27
206.88	1290.22
207.09	1302.51
207.31	1279.98
207.53	1212.40
207.75	1269.74
207.96	1292.27
208.18	1304.56
208.40	1279.98
208.61	1226.73
208.83	1210.35
209.05	1212.40
209.27	1224.69
209.48	1279.98
209.70	1286.12
209.92	1304.56
210.14	1304.56
210.35	1239.02
210.57	1259.50
210.79	1257.45
211.00	1257.45
211.22	1286.12
211.44	1261.55
211.66	1282.03
211.87	1261.55
212.09	1286.12
212.31	1247.21
212.52	1277.93
212.74	1265.64
212.96	1234.93
213.17	1234.93
213.39	1236.97
213.61	1333.23
213.83	1208.30
214.04	1279.98
214.26	1279.98
214.48	1234.93
214.69	1236.97
214.91	1253.36
215.13	1261.55
215.34	1222.64
215.56	1253.36
215.78	1265.64
216.00	1177.58
216.21	1296.36
216.43	1335.28
216.65	1185.77
216.86	1259.50
217.08	1255.40
217.30	1267.69
217.51	1294.32
217.73	1277.93
217.95	1241.07
218.16	1275.88
218.38	1216.49
218.60	1290.22
218.81	1198.06
219.03	1224.69
219.25	1288.17
219.46	1290.22
219.68	1288.17
219.90	1265.64
220.11	1312.75
220.33	1150.96
220.55	1241.07
220.76	1275.88
220.98	1265.64
221.20	1269.74
221.41	1226.73
221.63	1265.64
221.85	1232.88
222.06	1265.64
222.28	1204.21
222.50	1314.80
222.71	1234.93
222.93	1243.12
223.15	1261.55
223.36	1366.00
223.58	1265.64
223.80	1230.83
224.01	1286.12
224.23	1269.74
224.45	1310.70
224.66	1241.07
224.88	1267.69
225.10	1228.78
225.31	1196.01
225.53	1208.30
225.75	1230.83
225.96	1208.30
226.18	1241.07
226.39	1241.07
226.61	1308.65
226.83	1316.84
227.04	1206.25
227.26	1320.94
227.48	1282.03
227.69	1251.31
227.91	1230.83
228.13	1329.13
228.34	1298.41
228.56	1302.51
228.77	1249.26
228.99	1198.06
229.21	1269.74
229.42	1263.60
229.64	1218.54
229.86	1232.88
230.07	1279.98
230.29	1212.40
230.50	1230.83
230.72	1173.49
230.94	1353.71
231.15	1279.98
231.37	1339.37
231.58	1322.99
231.80	1198.06
232.02	1296.36
232.23	1282.03
232.45	1290.22
232.67	1249.26
232.88	1255.40
233.10	1249.26
233.31	1220.59
233.53	1261.55
233.75	1220.59
233.96	1249.26
234.18	1300.46
234.39	1202.16
234.61	1335.28
234.83	1290.22
235.04	1269.74
235.26	1261.55
235.47	1165.29
235.69	1347.56
235.91	1306.60
236.12	1339.37
236.34	1245.16
236.55	1157.10
236.77	1292.27
236.99	1253.36
237.20	1255.40
237.42	1261.55
237.63	1271.79
237.85	1308.65
238.06	1241.07
238.28	1232.88
238.50	1318.89
238.71	1292.27
238.93	1239.02
239.14	1292.27
239.36	1234.93
239.58	1325.04
239.79	1234.93
240.01	1214.45
240.22	1275.88
240.44	1269.74
240.65	1282.03
240.87	1275.88
241.09	1308.65
241.30	1241.07
241.52	1296.36
241.73	1214.45
241.95	1261.55
242.16	1277.93
242.38	1277.93
242.59	1228.78
242.81	1224.69
243.03	1314.80
243.24	1277.93
243.46	1243.12
243.67	1271.79
243.89	1204.21
244.10	1218.54
244.32	1232.88
244.53	1359.85
244.75	1189.87
244.97	1265.64
245.18	1320.94
245.40	1290.22
245.61	1212.40
245.83	1251.31
246.04	1306.60
246.26	1249.26
246.47	1282.03
246.69	1228.78
246.90	1239.02
247.12	1366.00
247.34	1282.03
247.55	1294.32
247.77	1245.16
247.98	1261.55
248.20	1175.53
248.41	1265.64
248.63	1212.40
248.84	1300.46
249.06	1261.55
249.27	1245.16
249.49	1259.50
249.70	1331.18
249.92	1204.21
250.13	1292.27
250.35	1214.45
250.56	1318.89
250.78	1304.56
251.00	1273.84
251.21	1339.37
251.43	1220.59
251.64	1337.32
251.86	1265.64
252.07	1263.60
252.29	1271.79
252.50	1177.58
252.72	1257.45
252.93	1314.80
253.15	1286.12
253.36	1265.64
253.58	1249.26
253.79	1198.06
254.01	1206.25
254.22	1314.80
254.44	1271.79
254.65	1282.03
254.87	1339.37
255.08	1349.61
255.30	1298.41
255.51	1275.88
255.73	1234.93
255.94	1298.41
256.16	1306.60
256.37	1294.32
256.59	1234.93
256.80	1263.60
257.02	1292.27
257.23	1282.03
257.45	1243.12
257.66	1275.88
257.88	1308.65
258.09	1261.55
258.31	1245.16
258.52	1177.58
258.74	1322.99
258.95	1329.13
259.16	1286.12
259.38	1292.27
259.59	1304.56
259.81	1265.64
260.02	1320.94
260.24	1263.60
260.45	1304.56
260.67	1298.41
260.88	1327.08
261.10	1327.08
261.31	1251.31
261.53	1255.40
261.74	1247.21
261.96	1218.54
262.17	1241.07
262.39	1265.64
262.60	1216.49
262.81	1273.84
263.03	1279.98
263.24	1228.78
263.46	1288.17
263.67	1316.84
263.89	1273.84
264.10	1150.96
264.32	1288.17
264.53	1263.60
264.75	1271.79
264.96	1273.84
265.17	1257.45
265.39	1312.75
265.60	1253.36
265.82	1253.36
266.03	1245.16
266.25	1263.60
266.46	1263.60
266.68	1226.73
266.89	1251.31
267.10	1261.55
267.32	1335.28
267.53	1275.88
267.75	1306.60
267.96	1257.45
268.18	1236.97
268.39	1265.64
268.61	1302.51
268.82	1263.60
269.03	1329.13
269.25	1241.07
269.46	1261.55
269.68	1239.02
269.89	1261.55
270.11	1284.08
270.32	1259.50
270.53	1300.46
270.75	1349.61
270.96	1267.69
271.18	1275.88
271.39	1282.03
271.60	1284.08
271.82	1259.50
272.03	1296.36
272.25	1327.08
272.46	1257.45
272.68	1345.52
272.89	1193.97
273.10	1275.88
273.32	1325.04
273.53	1261.55
273.75	1243.12
273.96	1259.50
274.17	1253.36
274.39	1279.98
274.60	1187.82
274.82	1263.60
275.03	1288.17
275.24	1325.04
275.46	1335.28
275.67	1322.99
275.89	1259.50
276.10	1265.64
276.31	1282.03
276.53	1331.18
276.74	1273.84
276.96	1298.41
277.17	1253.36
277.38	1312.75
277.60	1320.94
277.81	1290.22
278.02	1314.80
278.24	1245.16
278.45	1185.77
278.67	1239.02
278.88	1320.94
279.09	1284.08
279.31	1273.84
279.52	1243.12
279.73	1228.78
279.95	1245.16
280.16	1259.50
280.38	1216.49
280.59	1306.60
280.80	1228.78
281.02	1300.46
281.23	1286.12
281.44	1292.27
281.66	1302.51
281.87	1247.21
282.09	1261.55
282.30	1259.50
282.51	1286.12
282.73	1294.32
282.94	1273.84
283.15	1351.66
283.37	1308.65
283.58	1329.13
283.79	1288.17
284.01	1302.51
284.22	1394.67
284.43	1349.61
284.65	1257.45
284.86	1294.32
285.07	1366.00
285.29	1343.47
285.50	1306.60
285.72	1382.38
285.93	1374.19
286.14	1353.71
286.36	1349.61
286.57	1425.39
286.78	1445.87
287.00	1368.04
287.21	1366.00
287.42	1460.20
287.64	1437.67
287.85	1523.69
288.06	1452.01
288.28	1488.87
288.49	1531.88
288.70	1544.17
288.92	1540.07
289.13	1601.51
289.34	1486.83
289.56	1507.30
289.77	1583.08
289.98	1566.70
290.19	1540.07
290.41	1611.75
290.62	1544.17
290.83	1613.80
291.05	1513.45
291.26	1628.14
291.47	1589.22
291.69	1601.51
291.90	1730.53
292.11	1677.29
292.33	1728.49
292.54	1761.25
292.75	1779.68
292.97	1855.46
293.18	1859.56
293.39	1877.99
293.60	1974.24
293.82	2035.68
294.03	1931.23
294.24	2142.18
294.46	2043.87
294.67	2162.66
294.88	2265.05
295.10	2279.39
295.31	2279.39
295.52	2451.42
295.73	2547.67
295.95	2478.04
296.16	2609.11
296.37	2641.88
296.59	2684.89
296.80	2754.52
297.01	2901.97
297.22	2834.39
297.44	2987.99
297.65	2953.17
297.86	2994.13
298.08	3061.71
298.29	3123.15
298.50	3270.61
298.71	3299.28
298.93	3219.41
299.14	3282.89
299.35	3444.68
299.56	3383.24
299.78	3348.43
299.99	3481.55
300.20	3514.31
300.42	3526.60
300.63	3649.48
300.84	3774.41
301.05	3626.95
301.27	3663.82
301.48	3594.19
301.69	3680.20
301.90	3807.17
302.12	3848.13
302.33	3792.84
302.54	3872.71
302.75	3862.47
302.97	3975.11
303.18	3821.51
303.39	3983.30
303.60	4036.55
303.82	3991.49
304.03	4091.84
304.24	4114.37
304.45	4114.37
304.67	4054.98
304.88	4202.43
305.09	4028.35
305.30	4200.38
305.52	4278.21
305.73	4292.54
305.94	4302.78
306.15	4280.25
306.37	4282.30
306.58	4249.54
306.79	4368.32
307.00	4442.04
307.22	4294.59
307.43	4546.49
307.64	4464.57
307.85	4360.13
308.06	4542.39
308.28	4360.13
308.49	4550.59
308.70	4546.49
308.91	4603.83
309.13	4739.00
309.34	4642.75
309.55	4775.86
309.76	4566.97
309.97	4681.66
310.19	4747.19
310.40	4798.39
310.61	4872.12
310.82	4759.48
311.04	4865.97
311.25	4755.38
311.46	4827.06
311.67	4798.39
311.88	4847.54
312.10	4878.26
312.31	4949.94
312.52	4896.69
312.73	4868.02
312.94	4902.84
313.16	5048.24
313.37	4853.69
313.58	4939.70
313.79	5009.33
314.00	5060.53
314.22	5056.43
314.43	5089.20
314.64	5052.34
314.85	5250.99
315.06	5259.18
315.27	5052.34
315.49	5136.31
315.70	5263.28
315.91	5185.46
316.12	5119.92
316.33	5277.62
316.55	5298.10
316.76	5263.28
316.97	5423.02
317.18	5437.36
317.39	5341.10
317.60	5437.36
317.82	5347.25
318.03	5304.24
318.24	5558.19
318.45	5470.12
318.66	5359.53
318.88	5484.46
319.09	5535.66
319.30	5590.95
319.51	5537.71
319.72	5541.80
319.93	5406.64
320.15	5588.91
320.36	5562.28
320.57	5453.74
320.78	5595.05
320.99	5646.25
321.20	5648.30
321.41	5556.14
321.63	5734.31
321.84	5580.71
322.05	5472.17
322.26	5525.42
322.47	5736.36
322.68	5703.59
322.90	5685.16
323.11	5629.87
323.32	5808.04
323.53	5771.18
323.74	5580.71
323.95	5652.39
324.16	5607.34
324.38	5697.45
324.59	5789.61
324.80	5812.14
325.01	5758.89
325.22	5576.62
325.43	5834.66
325.64	5881.77
325.85	5799.85
326.07	5601.19
326.28	5744.55
326.49	5576.62
326.70	5670.83
326.91	5621.67
327.12	5578.67
327.33	5615.53
327.54	5724.07
327.76	5490.60
327.97	5550.00
328.18	5640.11
328.39	5617.58
328.60	5656.49
328.81	5474.22
329.02	5480.36
329.23	5775.27
329.45	5623.72
329.66	5631.91
329.87	5595.05
330.08	5664.68
330.29	5580.71
330.50	5738.41
330.71	5679.02
330.92	5840.81
331.13	6021.03
331.34	5953.45
331.56	6148.00
331.77	6377.37
331.98	6455.20
332.19	6438.81
332.40	6582.17
332.61	6635.42
332.82	6387.61
333.03	6313.89
333.24	6107.04
333.45	6148.00
333.67	5935.01
333.88	5982.12
334.09	5955.49
334.30	6053.80
334.51	6037.41
334.72	6033.32
334.93	6041.51
335.14	5875.62
335.35	6031.27
335.56	5982.12
335.77	6029.22
335.98	6039.46
336.19	6057.89
336.41	5908.39
336.62	5988.26
336.83	6039.46
337.04	5949.35
337.25	6082.47
337.46	5945.25
337.67	6152.10
337.88	6076.32
338.09	6104.99
338.30	6078.37
338.51	6129.57
338.72	6076.32
338.93	6041.51
339.14	6109.09
339.35	6107.04
339.57	5982.12
339.78	6066.08
339.99	6053.80
340.20	5998.50
340.41	5959.59
340.62	6195.11
340.83	5990.31
341.04	6049.70
341.25	6082.47
341.46	6055.84
341.67	6008.74
341.88	6178.72
342.09	6025.12
342.30	6053.80
342.51	5994.40
342.72	6221.73
342.93	6129.57
343.14	6205.35
343.35	6195.11
343.56	6186.91
343.77	6197.15
343.98	6078.37
344.19	6057.89
344.41	6156.19
344.62	6113.19
344.83	6088.61
345.04	5973.92
345.25	6143.91
345.46	6188.96
345.67	6199.20
345.88	6295.46
346.09	6061.99
346.30	6254.50
346.51	6303.65
346.72	6150.05
346.93	6252.45
347.14	6231.97
347.35	6231.97
347.56	6264.74
347.77	6191.01
347.98	6330.27
348.19	6137.76
348.40	6330.27
348.61	6197.15
348.82	6156.19
349.03	6111.14
349.24	6238.11
349.45	6172.58
349.66	6072.23
349.87	6250.40
350.08	6123.43
350.29	6188.96
350.50	6141.86
350.71	6080.42
350.92	6031.27
351.13	6152.10
351.34	6221.73
351.55	6170.53
351.76	5947.30
351.97	6139.81
352.18	6115.23
352.39	6018.98
352.60	6049.70
352.81	6066.08
353.02	6094.76
353.23	6016.93
353.44	6170.53
353.65	6217.63
353.86	6090.66
354.07	6025.12
354.28	6055.84
354.49	6055.84
354.70	6090.66
354.90	6018.98
355.11	6150.05
355.32	6215.59
355.53	6096.80
355.74	6008.74
355.95	5992.36
356.16	6205.35
356.37	6090.66
356.58	6115.23
356.79	5973.92
357.00	6096.80
357.21	6041.51
357.42	6188.96
357.63	6043.56
357.84	6150.05
358.05	6084.52
358.26	6283.17
358.47	6186.91
358.68	6236.06
358.89	6039.46
359.10	6045.60
359.31	6074.28
359.52	6184.87
359.73	6260.64
359.93	6256.54
360.14	6123.43
360.35	6250.40
360.56	6115.23
360.77	6254.50
360.98	6307.74
361.19	6219.68
361.40	6305.70
361.61	6317.98
361.82	6268.83
362.03	6248.35
362.24	6332.32
362.45	6238.11
362.66	6436.77
362.87	6422.43
363.07	6547.36
363.28	6506.40
363.49	6426.53
363.70	6449.05
363.91	6172.58
364.12	6352.80
364.33	6461.34
364.54	6553.50
364.75	6510.49
364.96	6502.30
365.17	6555.55
365.38	6465.44
365.58	6756.25
365.79	6455.20
366.00	6561.69
366.21	6516.64
366.42	6614.94
366.63	6784.92
366.84	6688.67
367.05	6649.75
367.26	6629.27
367.47	6717.34
367.67	6666.14
367.88	6666.14
368.09	6811.54
368.30	6692.76
368.51	6594.46
368.72	6784.92
368.93	6754.20
369.14	6567.84
369.35	6559.64
369.56	6676.38
369.76	6537.12
369.97	6563.74
370.18	6463.39
370.39	6641.56
370.60	6348.70
370.81	6600.60
371.02	6594.46
371.23	6664.09
371.43	6592.41
371.64	6590.36
371.85	6639.51
372.06	6590.36
372.27	6573.98
372.48	6594.46
372.69	6651.80
372.90	6657.95
373.10	6494.11
373.31	6596.51
373.52	6604.70
373.73	6588.32
373.94	6623.13
374.15	6696.86
374.36	6700.95
374.56	6825.88
374.77	6739.87
374.98	6819.74
375.19	6645.66
375.40	6791.06
375.61	6875.03
375.82	6778.78
376.02	6674.33
376.23	6850.46
376.44	6739.87
376.65	6811.54
376.86	6799.26
377.07	6965.14
377.28	6891.41
377.48	6838.17
377.69	6746.01
377.90	6987.67
378.11	6985.62
378.32	6895.51
378.53	6932.37
378.73	6905.75
378.94	6897.56
379.15	6858.65
379.36	7010.20
379.57	6875.03
379.78	6834.07
379.98	6741.91
380.19	6815.64
380.40	6940.57
380.61	6676.38
380.82	6666.14
381.03	6741.91
381.23	6961.05
381.44	6936.47
381.65	6862.74
381.86	6930.33
382.07	6875.03
382.27	7036.82
382.48	6715.29
382.69	6760.34
382.90	6932.37
383.11	6723.48
383.32	6799.26
383.52	6909.85
383.73	6938.52
383.94	6803.35
384.15	6696.86
384.36	6670.23
384.56	6733.72
384.77	6780.82
384.98	6877.08
385.19	6778.78
385.40	6711.19
385.60	6676.38
385.81	6786.97
386.02	6559.64
386.23	6717.34
386.43	6995.86
386.64	6987.67
386.85	6778.78
387.06	6883.22
387.27	6905.75
387.47	6959.00
387.68	6971.29
387.89	7014.29
388.10	6715.29
388.31	7045.01
388.51	7049.11
388.72	6791.06
388.93	6713.24
389.14	6696.86
389.34	6758.30
389.55	6793.11
389.76	6647.71
389.97	6887.32
390.18	6911.89
390.38	6879.13
390.59	6703.00
390.80	7006.10
391.01	6920.09
391.21	6975.38
391.42	7296.91
391.63	7350.16
391.84	7002.01
392.04	7301.01
392.25	7321.49
392.46	7100.31
392.67	7274.38
392.87	7253.91
393.08	6858.65
393.29	7116.69
393.50	7069.59
393.70	6948.76
393.91	7020.44
394.12	6918.04
394.33	6711.19
394.53	6909.85
394.74	6737.82
394.95	6659.99
395.16	7067.54
395.36	6649.75
395.57	6700.95
395.78	6610.84
395.99	6696.86
396.19	6975.38
396.40	7026.58
396.61	6995.86
396.81	6801.30
397.02	7260.05
397.23	7301.01
397.44	7366.54
397.64	7321.49
397.85	7417.74
398.06	7311.25
398.27	7145.36
398.47	7313.30
398.68	7049.11
398.89	7167.89
399.09	7147.41
399.30	7047.06
399.51	7020.44
399.72	6975.38
399.92	7122.84
400.13	6866.84
400.34	6930.33
400.54	6836.12
400.75	7053.20
400.96	6868.89
401.17	7182.23
401.37	6877.08
401.58	7047.06
401.79	6623.13
401.99	7214.99
402.20	6983.57
402.41	7135.12
402.61	7059.35
402.82	6961.05
403.03	6983.57
403.24	6850.46
403.44	6793.11
403.65	6887.32
403.86	7061.40
404.06	7112.60
404.27	7004.05
404.48	7198.61
404.68	7139.22
404.89	7075.73
405.10	7020.44
405.30	7165.84
405.51	7083.92
405.72	6891.41
405.92	6741.91
406.13	6766.49
406.34	6825.88
406.54	6805.40
406.75	6803.35
406.96	6752.15
407.16	7036.82
407.37	7069.59
407.58	6893.46
407.78	7155.60
407.99	7088.02
408.20	7301.01
408.40	7102.36
408.61	6969.24
408.82	7106.45
409.02	7022.48
409.23	7038.87
409.44	7010.20
409.64	6864.79
409.85	6743.96
410.06	6692.76
410.26	6918.04
410.47	6864.79
410.68	6729.63
410.88	7135.12
411.09	7079.83
411.30	7088.02
411.50	6893.46
411.71	7118.74
411.91	7114.64
412.12	6989.72
412.33	7077.78
412.53	6969.24
412.74	7241.62
412.95	7004.05
413.15	7274.38
413.36	6993.81
413.57	6944.66
413.77	6778.78
413.98	6772.63
414.18	6866.84
414.39	6870.94
414.60	7010.20
414.80	7057.30
415.01	6981.53
415.22	7059.35
415.42	6915.99
415.63	6905.75
415.83	6967.19
416.04	6754.20
416.25	6852.50
416.45	6741.91
416.66	6954.90
416.86	6856.60
417.07	7100.31
417.28	6889.37
417.48	7059.35
417.69	6975.38
417.89	6944.66
418.10	6844.31
418.31	6889.37
418.51	6879.13
418.72	7165.84
418.92	6858.65
419.13	7090.07
419.34	6975.38
419.54	7051.16
419.75	6875.03
419.95	7184.27
420.16	7122.84
420.37	7276.43
420.57	7415.69
420.78	7278.48
420.98	7608.20
421.19	7585.68
421.40	7239.57
421.60	7481.23
421.81	7372.69
422.01	7278.48
422.22	7176.08
422.42	7157.65
422.63	7108.50
422.84	6856.60
423.04	7002.01
423.25	6887.32
423.45	6811.54
423.66	7073.68
423.86	6795.16
424.07	7231.38
424.28	7395.22
424.48	7272.34
424.69	6985.62
424.89	7020.44
425.10	7108.50
425.30	7055.25
425.51	6627.23
425.72	7024.53
425.92	6821.78
426.13	6819.74
426.33	7004.05
426.54	7042.96
426.74	6907.80
426.95	6928.28
427.15	7036.82
427.36	7157.65
427.56	6623.13
427.77	7135.12
427.98	7176.08
428.18	7235.47
428.39	7417.74
428.59	7565.20
428.80	7356.30
429.00	7749.51
429.21	7747.47
429.41	7483.28
429.62	7614.35
429.82	7706.51
430.03	7673.74
430.23	7518.09
430.44	7542.67
430.65	7176.08
430.85	7612.30
431.06	7171.99
431.26	7065.49
431.47	6866.84
431.67	7231.38
431.88	7077.78
432.08	6983.57
432.29	6995.86
432.49	7204.75
432.70	6850.46
432.90	7014.29
433.11	7108.50
433.31	6782.87
433.52	6872.98
433.72	6825.88
433.93	7038.87
434.13	6967.19
434.34	7128.98
