SpectraSuite Data File
++++++++++++++++++++++++++++++++++++
Date: Fri Jan 24 17:04:44 MST 2020
User: Molly
Dark Spectrum Present: Yes
Reference Spectrum Present: Yes
Number of Sampled Component Spectra: 1
Spectrometers: USB4E03280
Integration Time (usec): 32000 (USB4E03280)
Spectra Averaged: 1 (USB4E03280)
Boxcar Smoothing: 0 (USB4E03280)
Correct for Electrical Dark: No (USB4E03280)
Strobe/Lamp Enabled: Yes (USB4E03280)
Correct for Detector Non-linearity: No (USB4E03280)
Correct for Stray Light: No (USB4E03280)
Number of Pixels in Processed Spectrum: 3648
>>>>>Begin Processed Spectral Data<<<<<
177.66	1105.90
177.88	1105.90
178.10	1105.90
178.32	1191.92
178.54	1236.97
178.76	1208.30
178.98	1220.59
179.19	1236.97
179.41	1189.87
179.63	1226.73
179.85	1200.11
180.07	1208.30
180.29	1286.12
180.51	1206.25
180.72	1255.40
180.94	1290.22
181.16	1189.87
181.38	1171.44
181.60	1206.25
181.82	1239.02
182.04	1265.64
182.25	1222.64
182.47	1206.25
182.69	1275.88
182.91	1202.16
183.13	1212.40
183.35	1228.78
183.56	1210.35
183.78	1220.59
184.00	1228.78
184.22	1234.93
184.44	1222.64
184.66	1304.56
184.87	1241.07
185.09	1284.08
185.31	1241.07
185.53	1273.84
185.75	1148.91
185.97	1288.17
186.18	1181.68
186.40	1245.16
186.62	1269.74
186.84	1212.40
187.06	1273.84
187.28	1222.64
187.49	1275.88
187.71	1318.89
187.93	1193.97
188.15	1177.58
188.37	1257.45
188.59	1292.27
188.80	1220.59
189.02	1208.30
189.24	1294.32
189.46	1177.58
189.68	1228.78
189.89	1202.16
190.11	1214.45
190.33	1202.16
190.55	1226.73
190.77	1257.45
190.98	1275.88
191.20	1261.55
191.42	1216.49
191.64	1294.32
191.86	1241.07
192.07	1208.30
192.29	1239.02
192.51	1175.53
192.73	1251.31
192.95	1243.12
193.16	1243.12
193.38	1271.79
193.60	1179.63
193.82	1241.07
194.04	1245.16
194.25	1193.97
194.47	1204.21
194.69	1193.97
194.91	1273.84
195.13	1294.32
195.34	1288.17
195.56	1263.60
195.78	1136.62
196.00	1142.77
196.22	1273.84
196.43	1273.84
196.65	1267.69
196.87	1212.40
197.09	1296.36
197.30	1216.49
197.52	1230.83
197.74	1224.69
197.96	1245.16
198.18	1282.03
198.39	1228.78
198.61	1202.16
198.83	1245.16
199.05	1284.08
199.26	1226.73
199.48	1273.84
199.70	1269.74
199.92	1196.01
200.13	1271.79
200.35	1198.06
200.57	1269.74
200.79	1245.16
201.00	1282.03
201.22	1265.64
201.44	1214.45
201.66	1306.60
201.88	1239.02
202.09	1218.54
202.31	1277.93
202.53	1290.22
202.75	1239.02
202.96	1271.79
203.18	1181.68
203.40	1310.70
203.62	1228.78
203.83	1273.84
204.05	1255.40
204.27	1322.99
204.49	1239.02
204.70	1234.93
204.92	1193.97
205.14	1214.45
205.35	1277.93
205.57	1316.84
205.79	1302.51
206.01	1234.93
206.22	1193.97
206.44	1226.73
206.66	1175.53
206.88	1236.97
207.09	1232.88
207.31	1198.06
207.53	1243.12
207.75	1196.01
207.96	1236.97
208.18	1241.07
208.40	1226.73
208.61	1245.16
208.83	1220.59
209.05	1251.31
209.27	1202.16
209.48	1234.93
209.70	1243.12
209.92	1208.30
210.14	1193.97
210.35	1165.29
210.57	1302.51
210.79	1228.78
211.00	1177.58
211.22	1196.01
211.44	1171.44
211.66	1267.69
211.87	1243.12
212.09	1269.74
212.31	1257.45
212.52	1290.22
212.74	1196.01
212.96	1265.64
213.17	1196.01
213.39	1316.84
213.61	1232.88
213.83	1261.55
214.04	1171.44
214.26	1259.50
214.48	1171.44
214.69	1304.56
214.91	1206.25
215.13	1245.16
215.34	1204.21
215.56	1226.73
215.78	1236.97
216.00	1228.78
216.21	1234.93
216.43	1265.64
216.65	1245.16
216.86	1161.20
217.08	1212.40
217.30	1298.41
217.51	1263.60
217.73	1247.21
217.95	1243.12
218.16	1253.36
218.38	1267.69
218.60	1232.88
218.81	1183.73
219.03	1226.73
219.25	1284.08
219.46	1236.97
219.68	1218.54
219.90	1218.54
220.11	1247.21
220.33	1189.87
220.55	1288.17
220.76	1257.45
220.98	1282.03
221.20	1273.84
221.41	1269.74
221.63	1249.26
221.85	1259.50
222.06	1290.22
222.28	1298.41
222.50	1255.40
222.71	1271.79
222.93	1220.59
223.15	1277.93
223.36	1279.98
223.58	1163.25
223.80	1222.64
224.01	1216.49
224.23	1253.36
224.45	1273.84
224.66	1257.45
224.88	1234.93
225.10	1185.77
225.31	1161.20
225.53	1265.64
225.75	1259.50
225.96	1275.88
226.18	1220.59
226.39	1218.54
226.61	1294.32
226.83	1279.98
227.04	1208.30
227.26	1271.79
227.48	1335.28
227.69	1241.07
227.91	1196.01
228.13	1228.78
228.34	1234.93
228.56	1216.49
228.77	1214.45
228.99	1214.45
229.21	1239.02
229.42	1267.69
229.64	1187.82
229.86	1243.12
230.07	1259.50
230.29	1298.41
230.50	1177.58
230.72	1224.69
230.94	1245.16
231.15	1284.08
231.37	1245.16
231.58	1267.69
231.80	1234.93
232.02	1243.12
232.23	1273.84
232.45	1230.83
232.67	1234.93
232.88	1218.54
233.10	1232.88
233.31	1173.49
233.53	1245.16
233.75	1222.64
233.96	1216.49
234.18	1247.21
234.39	1196.01
234.61	1253.36
234.83	1177.58
235.04	1196.01
235.26	1198.06
235.47	1187.82
235.69	1241.07
235.91	1220.59
236.12	1245.16
236.34	1290.22
236.55	1236.97
236.77	1218.54
236.99	1224.69
237.20	1220.59
237.42	1243.12
237.63	1232.88
237.85	1220.59
238.06	1275.88
238.28	1204.21
238.50	1312.75
238.71	1171.44
238.93	1302.51
239.14	1181.68
239.36	1253.36
239.58	1263.60
239.79	1202.16
240.01	1257.45
240.22	1288.17
240.44	1173.49
240.65	1222.64
240.87	1249.26
241.09	1177.58
241.30	1243.12
241.52	1263.60
241.73	1210.35
241.95	1308.65
242.16	1196.01
242.38	1263.60
242.59	1189.87
242.81	1243.12
243.03	1251.31
243.24	1253.36
243.46	1261.55
243.67	1163.25
243.89	1282.03
244.10	1234.93
244.32	1230.83
244.53	1228.78
244.75	1196.01
244.97	1245.16
245.18	1271.79
245.40	1243.12
245.61	1236.97
245.83	1224.69
246.04	1267.69
246.26	1165.29
246.47	1263.60
246.69	1222.64
246.90	1275.88
247.12	1181.68
247.34	1296.36
247.55	1298.41
247.77	1171.44
247.98	1234.93
248.20	1267.69
248.41	1230.83
248.63	1208.30
248.84	1230.83
249.06	1267.69
249.27	1210.35
249.49	1177.58
249.70	1251.31
249.92	1212.40
250.13	1263.60
250.35	1230.83
250.56	1236.97
250.78	1261.55
251.00	1290.22
251.21	1259.50
251.43	1198.06
251.64	1257.45
251.86	1253.36
252.07	1253.36
252.29	1208.30
252.50	1185.77
252.72	1273.84
252.93	1208.30
253.15	1275.88
253.36	1267.69
253.58	1239.02
253.79	1261.55
254.01	1325.04
254.22	1263.60
254.44	1241.07
254.65	1243.12
254.87	1175.53
255.08	1228.78
255.30	1222.64
255.51	1220.59
255.73	1236.97
255.94	1171.44
256.16	1290.22
256.37	1236.97
256.59	1325.04
256.80	1269.74
257.02	1232.88
257.23	1232.88
257.45	1277.93
257.66	1306.60
257.88	1216.49
258.09	1210.35
258.31	1206.25
258.52	1212.40
258.74	1243.12
258.95	1257.45
259.16	1200.11
259.38	1271.79
259.59	1306.60
259.81	1216.49
260.02	1269.74
260.24	1257.45
260.45	1351.66
260.67	1290.22
260.88	1279.98
261.10	1263.60
261.31	1253.36
261.53	1230.83
261.74	1284.08
261.96	1232.88
262.17	1187.82
262.39	1146.86
262.60	1220.59
262.81	1220.59
263.03	1216.49
263.24	1204.21
263.46	1275.88
263.67	1277.93
263.89	1308.65
264.10	1222.64
264.32	1193.97
264.53	1304.56
264.75	1316.84
264.96	1239.02
265.17	1181.68
265.39	1226.73
265.60	1226.73
265.82	1189.87
266.03	1222.64
266.25	1298.41
266.46	1259.50
266.68	1271.79
266.89	1230.83
267.10	1239.02
267.32	1239.02
267.53	1259.50
267.75	1157.10
267.96	1277.93
268.18	1304.56
268.39	1253.36
268.61	1165.29
268.82	1212.40
269.03	1177.58
269.25	1236.97
269.46	1236.97
269.68	1200.11
269.89	1191.92
270.11	1294.32
270.32	1306.60
270.53	1116.14
270.75	1265.64
270.96	1204.21
271.18	1239.02
271.39	1153.01
271.60	1251.31
271.82	1253.36
272.03	1296.36
272.25	1220.59
272.46	1234.93
272.68	1251.31
272.89	1290.22
273.10	1228.78
273.32	1261.55
273.53	1185.77
273.75	1200.11
273.96	1216.49
274.17	1271.79
274.39	1236.97
274.60	1165.29
274.82	1265.64
275.03	1234.93
275.24	1282.03
275.46	1245.16
275.67	1275.88
275.89	1306.60
276.10	1296.36
276.31	1306.60
276.53	1288.17
276.74	1296.36
276.96	1226.73
277.17	1224.69
277.38	1241.07
277.60	1325.04
277.81	1236.97
278.02	1257.45
278.24	1202.16
278.45	1206.25
278.67	1263.60
278.88	1210.35
279.09	1241.07
279.31	1279.98
279.52	1187.82
279.73	1263.60
279.95	1161.20
280.16	1239.02
280.38	1271.79
280.59	1286.12
280.80	1282.03
281.02	1257.45
281.23	1255.40
281.44	1230.83
281.66	1226.73
281.87	1271.79
282.09	1216.49
282.30	1212.40
282.51	1269.74
282.73	1277.93
282.94	1230.83
283.15	1191.92
283.37	1241.07
283.58	1234.93
283.79	1243.12
284.01	1255.40
284.22	1187.82
284.43	1290.22
284.65	1210.35
284.86	1212.40
285.07	1259.50
285.29	1210.35
285.50	1128.43
285.72	1239.02
285.93	1222.64
286.14	1247.21
286.36	1204.21
286.57	1275.88
286.78	1187.82
287.00	1212.40
287.21	1189.87
287.42	1220.59
287.64	1212.40
287.85	1282.03
288.06	1282.03
288.28	1290.22
288.49	1181.68
288.70	1239.02
288.92	1224.69
289.13	1224.69
289.34	1228.78
289.56	1251.31
289.77	1247.21
289.98	1204.21
290.19	1267.69
290.41	1165.29
290.62	1232.88
290.83	1302.51
291.05	1247.21
291.26	1224.69
291.47	1200.11
291.69	1284.08
291.90	1177.58
292.11	1189.87
292.33	1251.31
292.54	1239.02
292.75	1150.96
292.97	1249.26
293.18	1243.12
293.39	1214.45
293.60	1214.45
293.82	1220.59
294.03	1196.01
294.24	1228.78
294.46	1216.49
294.67	1228.78
294.88	1218.54
295.10	1232.88
295.31	1292.27
295.52	1265.64
295.73	1161.20
295.95	1212.40
296.16	1216.49
296.37	1265.64
296.59	1265.64
296.80	1296.36
297.01	1267.69
297.22	1216.49
297.44	1222.64
297.65	1265.64
297.86	1249.26
298.08	1239.02
298.29	1304.56
298.50	1361.90
298.71	1204.21
298.93	1263.60
299.14	1218.54
299.35	1249.26
299.56	1230.83
299.78	1284.08
299.99	1239.02
300.20	1212.40
300.42	1253.36
300.63	1241.07
300.84	1236.97
301.05	1226.73
301.27	1243.12
301.48	1243.12
301.69	1200.11
301.90	1251.31
302.12	1198.06
302.33	1322.99
302.54	1257.45
302.75	1196.01
302.97	1228.78
303.18	1359.85
303.39	1214.45
303.60	1204.21
303.82	1222.64
304.03	1251.31
304.24	1271.79
304.45	1179.63
304.67	1150.96
304.88	1222.64
305.09	1255.40
305.30	1216.49
305.52	1167.34
305.73	1187.82
305.94	1263.60
306.15	1269.74
306.37	1284.08
306.58	1310.70
306.79	1267.69
307.00	1306.60
307.22	1245.16
307.43	1165.29
307.64	1224.69
307.85	1279.98
308.06	1251.31
308.28	1196.01
308.49	1150.96
308.70	1265.64
308.91	1236.97
309.13	1200.11
309.34	1222.64
309.55	1306.60
309.76	1204.21
309.97	1277.93
310.19	1202.16
310.40	1292.27
310.61	1230.83
310.82	1251.31
311.04	1224.69
311.25	1214.45
311.46	1251.31
311.67	1191.92
311.88	1224.69
312.10	1234.93
312.31	1263.60
312.52	1261.55
312.73	1204.21
312.94	1234.93
313.16	1222.64
313.37	1245.16
313.58	1288.17
313.79	1193.97
314.00	1255.40
314.22	1243.12
314.43	1216.49
314.64	1288.17
314.85	1196.01
315.06	1212.40
315.27	1263.60
315.49	1202.16
315.70	1255.40
315.91	1202.16
316.12	1236.97
316.33	1222.64
316.55	1271.79
316.76	1191.92
316.97	1247.21
317.18	1314.80
317.39	1226.73
317.60	1306.60
317.82	1247.21
318.03	1232.88
318.24	1255.40
318.45	1259.50
318.66	1275.88
318.88	1193.97
319.09	1232.88
319.30	1265.64
319.51	1298.41
319.72	1159.15
319.93	1181.68
320.15	1288.17
320.36	1269.74
320.57	1273.84
320.78	1251.31
320.99	1269.74
321.20	1159.15
321.41	1251.31
321.63	1196.01
321.84	1204.21
322.05	1251.31
322.26	1298.41
322.47	1220.59
322.68	1173.49
322.90	1220.59
323.11	1232.88
323.32	1263.60
323.53	1228.78
323.74	1243.12
323.95	1310.70
324.16	1239.02
324.38	1267.69
324.59	1243.12
324.80	1204.21
325.01	1191.92
325.22	1337.32
325.43	1206.25
325.64	1224.69
325.85	1222.64
326.07	1251.31
326.28	1241.07
326.49	1255.40
326.70	1216.49
326.91	1236.97
327.12	1169.39
327.33	1204.21
327.54	1210.35
327.76	1228.78
327.97	1286.12
328.18	1187.82
328.39	1251.31
328.60	1189.87
328.81	1232.88
329.02	1230.83
329.23	1247.21
329.45	1304.56
329.66	1277.93
329.87	1171.44
330.08	1255.40
330.29	1253.36
330.50	1261.55
330.71	1279.98
330.92	1300.46
331.13	1234.93
331.34	1191.92
331.56	1265.64
331.77	1243.12
331.98	1236.97
332.19	1275.88
332.40	1202.16
332.61	1183.73
332.82	1230.83
333.03	1273.84
333.24	1275.88
333.45	1241.07
333.67	1255.40
333.88	1175.53
334.09	1296.36
334.30	1193.97
334.51	1298.41
334.72	1228.78
334.93	1253.36
335.14	1191.92
335.35	1316.84
335.56	1173.49
335.77	1183.73
335.98	1257.45
336.19	1204.21
336.41	1198.06
336.62	1157.10
336.83	1228.78
337.04	1279.98
337.25	1185.77
337.46	1220.59
337.67	1228.78
337.88	1263.60
338.09	1234.93
338.30	1214.45
338.51	1183.73
338.72	1187.82
338.93	1220.59
339.14	1265.64
339.35	1228.78
339.57	1230.83
339.78	1181.68
339.99	1220.59
340.20	1204.21
340.41	1251.31
340.62	1224.69
340.83	1316.84
341.04	1165.29
341.25	1271.79
341.46	1216.49
341.67	1218.54
341.88	1245.16
342.09	1212.40
342.30	1267.69
342.51	1214.45
342.72	1175.53
342.93	1257.45
343.14	1267.69
343.35	1204.21
343.56	1222.64
343.77	1216.49
343.98	1245.16
344.19	1210.35
344.41	1288.17
344.62	1271.79
344.83	1218.54
345.04	1185.77
345.25	1251.31
345.46	1331.18
345.67	1150.96
345.88	1269.74
346.09	1255.40
346.30	1204.21
346.51	1249.26
346.72	1279.98
346.93	1157.10
347.14	1273.84
347.35	1249.26
347.56	1220.59
347.77	1251.31
347.98	1296.36
348.19	1140.72
348.40	1236.97
348.61	1247.21
348.82	1245.16
349.03	1243.12
349.24	1155.05
349.45	1175.53
349.66	1241.07
349.87	1275.88
350.08	1261.55
350.29	1255.40
350.50	1179.63
350.71	1128.43
350.92	1241.07
351.13	1251.31
351.34	1247.21
351.55	1265.64
351.76	1298.41
351.97	1228.78
352.18	1277.93
352.39	1224.69
352.60	1279.98
352.81	1290.22
353.02	1263.60
353.23	1239.02
353.44	1218.54
353.65	1206.25
353.86	1245.16
354.07	1183.73
354.28	1222.64
354.49	1208.30
354.70	1222.64
354.90	1224.69
355.11	1275.88
355.32	1261.55
355.53	1236.97
355.74	1261.55
355.95	1308.65
356.16	1198.06
356.37	1253.36
356.58	1224.69
356.79	1185.77
357.00	1200.11
357.21	1261.55
357.42	1171.44
357.63	1253.36
357.84	1243.12
358.05	1265.64
358.26	1257.45
358.47	1265.64
358.68	1241.07
358.89	1288.17
359.10	1282.03
359.31	1259.50
359.52	1277.93
359.73	1224.69
359.93	1202.16
360.14	1247.21
360.35	1255.40
360.56	1212.40
360.77	1204.21
360.98	1230.83
361.19	1318.89
361.40	1288.17
361.61	1241.07
361.82	1214.45
362.03	1296.36
362.24	1251.31
362.45	1171.44
362.66	1218.54
362.87	1261.55
363.07	1325.04
363.28	1224.69
363.49	1239.02
363.70	1296.36
363.91	1286.12
364.12	1224.69
364.33	1247.21
364.54	1228.78
364.75	1269.74
364.96	1216.49
365.17	1249.26
365.38	1208.30
365.58	1224.69
365.79	1294.32
366.00	1263.60
366.21	1230.83
366.42	1191.92
366.63	1216.49
366.84	1187.82
367.05	1208.30
367.26	1263.60
367.47	1175.53
367.67	1230.83
367.88	1253.36
368.09	1257.45
368.30	1159.15
368.51	1327.08
368.72	1247.21
368.93	1241.07
369.14	1308.65
369.35	1318.89
369.56	1191.92
369.76	1300.46
369.97	1243.12
370.18	1177.58
370.39	1290.22
370.60	1220.59
370.81	1261.55
371.02	1267.69
371.23	1243.12
371.43	1200.11
371.64	1222.64
371.85	1265.64
372.06	1169.39
372.27	1218.54
372.48	1220.59
372.69	1279.98
372.90	1253.36
373.10	1206.25
373.31	1210.35
373.52	1253.36
373.73	1261.55
373.94	1310.70
374.15	1185.77
374.36	1216.49
374.56	1234.93
374.77	1232.88
374.98	1210.35
375.19	1239.02
375.40	1230.83
375.61	1230.83
375.82	1196.01
376.02	1226.73
376.23	1232.88
376.44	1214.45
376.65	1308.65
376.86	1257.45
377.07	1224.69
377.28	1218.54
377.48	1249.26
377.69	1282.03
377.90	1208.30
378.11	1279.98
378.32	1212.40
378.53	1204.21
378.73	1245.16
378.94	1185.77
379.15	1318.89
379.36	1161.20
379.57	1150.96
379.78	1286.12
379.98	1247.21
380.19	1243.12
380.40	1218.54
380.61	1212.40
380.82	1214.45
381.03	1261.55
381.23	1138.67
381.44	1269.74
381.65	1181.68
381.86	1220.59
382.07	1169.39
382.27	1253.36
382.48	1130.48
382.69	1218.54
382.90	1294.32
383.11	1251.31
383.32	1261.55
383.52	1236.97
383.73	1220.59
383.94	1288.17
384.15	1279.98
384.36	1210.35
384.56	1255.40
384.77	1296.36
384.98	1318.89
385.19	1202.16
385.40	1220.59
385.60	1282.03
385.81	1245.16
386.02	1236.97
386.23	1284.08
386.43	1247.21
386.64	1247.21
386.85	1236.97
387.06	1261.55
387.27	1257.45
387.47	1210.35
387.68	1187.82
387.89	1228.78
388.10	1200.11
388.31	1228.78
388.51	1206.25
388.72	1232.88
388.93	1239.02
389.14	1216.49
389.34	1187.82
389.55	1216.49
389.76	1220.59
389.97	1271.79
390.18	1177.58
390.38	1208.30
390.59	1275.88
390.80	1263.60
391.01	1247.21
391.21	1247.21
391.42	1294.32
391.63	1251.31
391.84	1267.69
392.04	1241.07
392.25	1273.84
392.46	1185.77
392.67	1298.41
392.87	1222.64
393.08	1300.46
393.29	1239.02
393.50	1306.60
393.70	1216.49
393.91	1202.16
394.12	1282.03
394.33	1286.12
394.53	1277.93
394.74	1232.88
394.95	1228.78
395.16	1277.93
395.36	1198.06
395.57	1273.84
395.78	1224.69
395.99	1224.69
396.19	1232.88
396.40	1257.45
396.61	1175.53
396.81	1247.21
397.02	1220.59
397.23	1267.69
397.44	1267.69
397.64	1155.05
397.85	1253.36
398.06	1249.26
398.27	1224.69
398.47	1247.21
398.68	1189.87
398.89	1210.35
399.09	1255.40
399.30	1245.16
399.51	1261.55
399.72	1218.54
399.92	1226.73
400.13	1247.21
400.34	1200.11
400.54	1243.12
400.75	1253.36
400.96	1198.06
401.17	1245.16
401.37	1222.64
401.58	1216.49
401.79	1222.64
401.99	1327.08
402.20	1239.02
402.41	1310.70
402.61	1267.69
402.82	1196.01
403.03	1257.45
403.24	1226.73
403.44	1247.21
403.65	1204.21
403.86	1286.12
404.06	1224.69
404.27	1210.35
404.48	1273.84
404.68	1241.07
404.89	1304.56
405.10	1222.64
405.30	1228.78
405.51	1212.40
405.72	1185.77
405.92	1286.12
406.13	1204.21
406.34	1261.55
406.54	1255.40
406.75	1259.50
406.96	1241.07
407.16	1167.34
407.37	1267.69
407.58	1224.69
407.78	1320.94
407.99	1263.60
408.20	1249.26
408.40	1202.16
408.61	1179.63
408.82	1236.97
409.02	1204.21
409.23	1165.29
409.44	1296.36
409.64	1212.40
409.85	1220.59
410.06	1288.17
410.26	1263.60
410.47	1251.31
410.68	1187.82
410.88	1234.93
411.09	1228.78
411.30	1214.45
411.50	1243.12
411.71	1200.11
411.91	1230.83
412.12	1312.75
412.33	1179.63
412.53	1245.16
412.74	1243.12
412.95	1288.17
413.15	1230.83
413.36	1169.39
413.57	1214.45
413.77	1257.45
413.98	1220.59
414.18	1304.56
414.39	1249.26
414.60	1277.93
414.80	1249.26
415.01	1300.46
415.22	1277.93
415.42	1279.98
415.63	1222.64
415.83	1255.40
416.04	1187.82
416.25	1193.97
416.45	1236.97
416.66	1243.12
416.86	1232.88
417.07	1271.79
417.28	1243.12
417.48	1257.45
417.69	1216.49
417.89	1226.73
418.10	1196.01
418.31	1294.32
418.51	1298.41
418.72	1273.84
418.92	1204.21
419.13	1218.54
419.34	1212.40
419.54	1189.87
419.75	1206.25
419.95	1232.88
420.16	1269.74
420.37	1191.92
420.57	1185.77
420.78	1183.73
420.98	1255.40
421.19	1316.84
421.40	1171.44
421.60	1175.53
421.81	1255.40
422.01	1239.02
422.22	1224.69
422.42	1239.02
422.63	1208.30
422.84	1273.84
423.04	1277.93
423.25	1208.30
423.45	1220.59
423.66	1234.93
423.86	1257.45
424.07	1282.03
424.28	1175.53
424.48	1200.11
424.69	1261.55
424.89	1243.12
425.10	1261.55
425.30	1200.11
425.51	1251.31
425.72	1245.16
425.92	1196.01
426.13	1191.92
426.33	1212.40
426.54	1251.31
426.74	1228.78
426.95	1257.45
427.15	1193.97
427.36	1241.07
427.56	1267.69
427.77	1253.36
427.98	1279.98
428.18	1269.74
428.39	1218.54
428.59	1245.16
428.80	1196.01
429.00	1234.93
429.21	1263.60
429.41	1249.26
429.62	1196.01
429.82	1265.64
430.03	1218.54
430.23	1247.21
430.44	1271.79
430.65	1214.45
430.85	1212.40
431.06	1222.64
431.26	1253.36
431.47	1191.92
431.67	1206.25
431.88	1206.25
432.08	1185.77
432.29	1273.84
432.49	1187.82
432.70	1263.60
432.90	1169.39
433.11	1269.74
433.31	1216.49
433.52	1265.64
433.72	1269.74
433.93	1253.36
434.13	1196.01
434.34	1271.79
