SpectraSuite Data File
++++++++++++++++++++++++++++++++++++
Date: Fri Jan 24 17:01:20 MST 2020
User: Molly
Dark Spectrum Present: Yes
Reference Spectrum Present: Yes
Number of Sampled Component Spectra: 1
Spectrometers: USB4E03280
Integration Time (usec): 32000 (USB4E03280)
Spectra Averaged: 1 (USB4E03280)
Boxcar Smoothing: 0 (USB4E03280)
Correct for Electrical Dark: No (USB4E03280)
Strobe/Lamp Enabled: Yes (USB4E03280)
Correct for Detector Non-linearity: No (USB4E03280)
Correct for Stray Light: No (USB4E03280)
Number of Pixels in Processed Spectrum: 3648
>>>>>Begin Processed Spectral Data<<<<<
177.66	1153.01
177.88	1153.01
178.10	1153.01
178.32	1255.40
178.54	1206.25
178.76	1232.88
178.98	1261.55
179.19	1232.88
179.41	1216.49
179.63	1214.45
179.85	1234.93
180.07	1179.63
180.29	1146.86
180.51	1265.64
180.72	1193.97
180.94	1167.34
181.16	1243.12
181.38	1187.82
181.60	1277.93
181.82	1261.55
182.04	1288.17
182.25	1275.88
182.47	1259.50
182.69	1259.50
182.91	1232.88
183.13	1325.04
183.35	1300.46
183.56	1339.37
183.78	1298.41
184.00	1253.36
184.22	1306.60
184.44	1302.51
184.66	1284.08
184.87	1261.55
185.09	1302.51
185.31	1247.21
185.53	1269.74
185.75	1171.44
185.97	1322.99
186.18	1212.40
186.40	1337.32
186.62	1329.13
186.84	1222.64
187.06	1249.26
187.28	1318.89
187.49	1284.08
187.71	1349.61
187.93	1288.17
188.15	1259.50
188.37	1322.99
188.59	1296.36
188.80	1257.45
189.02	1294.32
189.24	1357.80
189.46	1241.07
189.68	1245.16
189.89	1294.32
190.11	1269.74
190.33	1306.60
190.55	1306.60
190.77	1245.16
190.98	1265.64
191.20	1212.40
191.42	1298.41
191.64	1216.49
191.86	1273.84
192.07	1277.93
192.29	1296.36
192.51	1345.52
192.73	1263.60
192.95	1322.99
193.16	1212.40
193.38	1333.23
193.60	1333.23
193.82	1331.18
194.04	1239.02
194.25	1302.51
194.47	1179.63
194.69	1259.50
194.91	1249.26
195.13	1316.84
195.34	1284.08
195.56	1257.45
195.78	1232.88
196.00	1294.32
196.22	1220.59
196.43	1380.33
196.65	1333.23
196.87	1228.78
197.09	1247.21
197.30	1251.31
197.52	1335.28
197.74	1275.88
197.96	1282.03
198.18	1292.27
198.39	1247.21
198.61	1265.64
198.83	1290.22
199.05	1267.69
199.26	1298.41
199.48	1294.32
199.70	1318.89
199.92	1345.52
200.13	1310.70
200.35	1261.55
200.57	1259.50
200.79	1277.93
201.00	1275.88
201.22	1271.79
201.44	1241.07
201.66	1318.89
201.88	1245.16
202.09	1261.55
202.31	1347.56
202.53	1357.80
202.75	1275.88
202.96	1243.12
203.18	1331.18
203.40	1345.52
203.62	1318.89
203.83	1355.76
204.05	1325.04
204.27	1259.50
204.49	1288.17
204.70	1308.65
204.92	1243.12
205.14	1261.55
205.35	1433.58
205.57	1318.89
205.79	1290.22
206.01	1300.46
206.22	1335.28
206.44	1320.94
206.66	1318.89
206.88	1306.60
207.09	1269.74
207.31	1394.67
207.53	1243.12
207.75	1304.56
207.96	1275.88
208.18	1306.60
208.40	1345.52
208.61	1312.75
208.83	1247.21
209.05	1257.45
209.27	1284.08
209.48	1273.84
209.70	1372.14
209.92	1282.03
210.14	1345.52
210.35	1247.21
210.57	1312.75
210.79	1329.13
211.00	1277.93
211.22	1329.13
211.44	1257.45
211.66	1284.08
211.87	1277.93
212.09	1239.02
212.31	1273.84
212.52	1300.46
212.74	1374.19
212.96	1325.04
213.17	1359.85
213.39	1406.95
213.61	1333.23
213.83	1220.59
214.04	1286.12
214.26	1322.99
214.48	1290.22
214.69	1302.51
214.91	1314.80
215.13	1316.84
215.34	1300.46
215.56	1286.12
215.78	1308.65
216.00	1279.98
216.21	1343.47
216.43	1327.08
216.65	1202.16
216.86	1308.65
217.08	1329.13
217.30	1402.86
217.51	1255.40
217.73	1361.90
217.95	1239.02
218.16	1312.75
218.38	1314.80
218.60	1345.52
218.81	1263.60
219.03	1286.12
219.25	1322.99
219.46	1292.27
219.68	1302.51
219.90	1304.56
220.11	1243.12
220.33	1327.08
220.55	1386.47
220.76	1279.98
220.98	1310.70
221.20	1284.08
221.41	1247.21
221.63	1267.69
221.85	1275.88
222.06	1222.64
222.28	1382.38
222.50	1322.99
222.71	1296.36
222.93	1316.84
223.15	1312.75
223.36	1359.85
223.58	1304.56
223.80	1267.69
224.01	1302.51
224.23	1327.08
224.45	1333.23
224.66	1261.55
224.88	1277.93
225.10	1288.17
225.31	1306.60
225.53	1282.03
225.75	1302.51
225.96	1261.55
226.18	1374.19
226.39	1349.61
226.61	1304.56
226.83	1312.75
227.04	1275.88
227.26	1306.60
227.48	1361.90
227.69	1314.80
227.91	1308.65
228.13	1304.56
228.34	1325.04
228.56	1298.41
228.77	1277.93
228.99	1345.52
229.21	1320.94
229.42	1347.56
229.64	1224.69
229.86	1290.22
230.07	1306.60
230.29	1298.41
230.50	1308.65
230.72	1308.65
230.94	1208.30
231.15	1292.27
231.37	1322.99
231.58	1318.89
231.80	1286.12
232.02	1306.60
232.23	1368.04
232.45	1370.09
232.67	1257.45
232.88	1314.80
233.10	1308.65
233.31	1314.80
233.53	1339.37
233.75	1316.84
233.96	1212.40
234.18	1339.37
234.39	1314.80
234.61	1333.23
234.83	1243.12
235.04	1279.98
235.26	1226.73
235.47	1255.40
235.69	1363.95
235.91	1286.12
236.12	1298.41
236.34	1386.47
236.55	1245.16
236.77	1370.09
236.99	1243.12
237.20	1284.08
237.42	1310.70
237.63	1316.84
237.85	1372.14
238.06	1316.84
238.28	1279.98
238.50	1368.04
238.71	1347.56
238.93	1286.12
239.14	1290.22
239.36	1372.14
239.58	1333.23
239.79	1267.69
240.01	1329.13
240.22	1294.32
240.44	1429.48
240.65	1322.99
240.87	1273.84
241.09	1288.17
241.30	1318.89
241.52	1304.56
241.73	1312.75
241.95	1306.60
242.16	1347.56
242.38	1370.09
242.59	1259.50
242.81	1296.36
243.03	1351.66
243.24	1355.76
243.46	1314.80
243.67	1241.07
243.89	1202.16
244.10	1298.41
244.32	1322.99
244.53	1331.18
244.75	1320.94
244.97	1310.70
245.18	1355.76
245.40	1320.94
245.61	1267.69
245.83	1234.93
246.04	1368.04
246.26	1318.89
246.47	1316.84
246.69	1308.65
246.90	1349.61
247.12	1355.76
247.34	1312.75
247.55	1296.36
247.77	1322.99
247.98	1318.89
248.20	1318.89
248.41	1265.64
248.63	1337.32
248.84	1302.51
249.06	1349.61
249.27	1279.98
249.49	1239.02
249.70	1292.27
249.92	1343.47
250.13	1333.23
250.35	1302.51
250.56	1290.22
250.78	1353.71
251.00	1374.19
251.21	1296.36
251.43	1288.17
251.64	1312.75
251.86	1282.03
252.07	1343.47
252.29	1335.28
252.50	1322.99
252.72	1372.14
252.93	1265.64
253.15	1390.57
253.36	1413.10
253.58	1310.70
253.79	1316.84
254.01	1390.57
254.22	1271.79
254.44	1327.08
254.65	1366.00
254.87	1318.89
255.08	1300.46
255.30	1277.93
255.51	1310.70
255.73	1294.32
255.94	1267.69
256.16	1388.52
256.37	1249.26
256.59	1347.56
256.80	1351.66
257.02	1296.36
257.23	1247.21
257.45	1339.37
257.66	1302.51
257.88	1359.85
258.09	1314.80
258.31	1351.66
258.52	1322.99
258.74	1353.71
258.95	1378.28
259.16	1345.52
259.38	1347.56
259.59	1314.80
259.81	1302.51
260.02	1298.41
260.24	1337.32
260.45	1347.56
260.67	1378.28
260.88	1419.24
261.10	1320.94
261.31	1288.17
261.53	1312.75
261.74	1355.76
261.96	1302.51
262.17	1318.89
262.39	1386.47
262.60	1372.14
262.81	1372.14
263.03	1341.42
263.24	1308.65
263.46	1286.12
263.67	1353.71
263.89	1361.90
264.10	1331.18
264.32	1312.75
264.53	1277.93
264.75	1339.37
264.96	1347.56
265.17	1351.66
265.39	1339.37
265.60	1322.99
265.82	1279.98
266.03	1304.56
266.25	1384.43
266.46	1339.37
266.68	1302.51
266.89	1298.41
267.10	1363.95
267.32	1386.47
267.53	1351.66
267.75	1347.56
267.96	1327.08
268.18	1349.61
268.39	1413.10
268.61	1335.28
268.82	1279.98
269.03	1308.65
269.25	1290.22
269.46	1302.51
269.68	1378.28
269.89	1355.76
270.11	1415.15
270.32	1390.57
270.53	1370.09
270.75	1370.09
270.96	1284.08
271.18	1304.56
271.39	1392.62
271.60	1366.00
271.82	1374.19
272.03	1353.71
272.25	1329.13
272.46	1374.19
272.68	1378.28
272.89	1343.47
273.10	1388.52
273.32	1411.05
273.53	1370.09
273.75	1372.14
273.96	1290.22
274.17	1337.32
274.39	1327.08
274.60	1343.47
274.82	1398.76
275.03	1411.05
275.24	1388.52
275.46	1349.61
275.67	1429.48
275.89	1421.29
276.10	1384.43
276.31	1415.15
276.53	1386.47
276.74	1368.04
276.96	1325.04
277.17	1386.47
277.38	1343.47
277.60	1347.56
277.81	1304.56
278.02	1380.33
278.24	1357.80
278.45	1341.42
278.67	1366.00
278.88	1409.00
279.09	1443.82
279.31	1402.86
279.52	1331.18
279.73	1376.24
279.95	1382.38
280.16	1380.33
280.38	1359.85
280.59	1400.81
280.80	1398.76
281.02	1359.85
281.23	1372.14
281.44	1363.95
281.66	1402.86
281.87	1363.95
282.09	1353.71
282.30	1392.62
282.51	1460.20
282.73	1466.35
282.94	1458.15
283.15	1488.87
283.37	1478.63
283.58	1540.07
283.79	1552.36
284.01	1542.12
284.22	1640.42
284.43	1730.53
284.65	1705.96
284.86	1712.10
285.07	1744.87
285.29	1830.88
285.50	1957.86
285.72	1912.80
285.93	1966.05
286.14	1982.43
286.36	2056.16
286.57	2271.20
286.78	2207.71
287.00	2287.58
287.21	2467.80
287.42	2519.00
287.64	2619.35
287.85	2594.78
288.06	2740.18
288.28	2826.20
288.49	2947.03
288.70	2920.40
288.92	3067.86
289.13	3203.02
289.34	3289.04
289.56	3149.78
289.77	3190.74
289.98	3262.41
290.19	3469.26
290.41	3311.57
290.62	3401.68
290.83	3432.40
291.05	3510.22
291.26	3555.27
291.47	3573.71
291.69	3674.06
291.90	3952.58
292.11	4091.84
292.33	4313.02
292.54	4349.89
292.75	4566.97
292.97	4831.16
293.18	5154.74
293.39	5351.34
293.60	5617.58
293.82	5900.20
294.03	5994.40
294.24	6555.55
294.46	6723.48
294.67	7040.92
294.88	7268.24
295.10	7802.76
295.31	8021.89
295.52	8556.41
295.73	8777.59
295.95	8972.15
296.16	9754.48
296.37	9705.32
296.59	10073.96
296.80	10338.15
297.01	10985.30
297.22	10880.86
297.44	11595.60
297.65	11614.03
297.86	12058.44
298.08	12181.32
298.29	12552.00
298.50	12746.56
298.71	13166.39
298.93	13031.23
299.14	13522.74
299.35	13752.11
299.56	13692.72
299.78	14165.80
299.99	14567.20
300.20	14516.00
300.42	14561.06
300.63	14667.55
300.84	15212.31
301.05	15138.58
301.27	15320.85
301.48	15623.95
301.69	15578.90
301.90	15681.30
302.12	16199.43
302.33	16068.36
302.54	16312.07
302.75	16285.45
302.97	16193.29
303.18	16185.10
303.39	16690.95
303.60	17004.28
303.82	17002.24
304.03	17086.20
304.24	17104.64
304.45	16955.13
304.67	17336.06
304.88	17594.10
305.09	17221.37
305.30	17575.67
305.52	17577.72
305.73	17532.66
305.94	17929.97
306.15	18083.56
306.37	18083.56
306.58	18009.84
306.79	18300.65
307.00	18102.00
307.22	18411.24
307.43	18460.39
307.64	18126.57
307.85	18577.12
308.06	18276.07
308.28	18589.41
308.49	18888.42
308.70	18654.95
308.91	18552.55
309.13	18710.24
309.34	18992.86
309.55	18771.68
309.76	19013.34
309.97	18990.81
310.19	19248.86
310.40	19156.70
310.61	19101.40
310.82	19029.73
311.04	19304.15
311.25	19230.43
311.46	19730.13
311.67	19355.35
311.88	19492.57
312.10	19300.06
312.31	19613.40
312.52	20057.81
312.73	19459.80
312.94	19312.35
313.16	19691.22
313.37	19277.53
313.58	19705.56
313.79	19973.84
314.00	19640.02
314.22	19277.53
314.43	20262.60
314.64	19635.92
314.85	19709.65
315.06	19795.67
315.27	19998.41
315.49	19826.39
315.70	19941.07
315.91	19676.88
316.12	19906.26
316.33	20295.37
316.55	19726.04
316.76	19965.65
316.97	20225.74
317.18	20113.10
317.39	20756.16
317.60	20446.92
317.82	20225.74
318.03	20059.85
318.24	20244.17
318.45	20088.53
318.66	20127.44
318.88	20440.78
319.09	20086.48
319.30	20442.82
319.51	20301.51
319.72	20098.77
319.93	20440.78
320.15	20172.49
320.36	20561.61
320.57	20668.10
320.78	20305.61
320.99	20278.99
321.20	20532.93
321.41	19998.41
321.63	20014.80
321.84	20334.28
322.05	20352.71
322.26	20117.20
322.47	20735.68
322.68	19967.70
322.90	20231.88
323.11	19742.42
323.32	20629.19
323.53	20061.90
323.74	19986.13
323.95	20207.31
324.16	20080.33
324.38	20117.20
324.59	20096.72
324.80	19975.89
325.01	20076.24
325.22	20063.95
325.43	19850.96
325.64	20002.51
325.85	20039.37
326.07	19009.25
326.28	19764.95
326.49	19662.55
326.70	19564.25
326.91	19226.33
327.12	19187.42
327.33	18888.42
327.54	19449.56
327.76	18929.38
327.97	18835.17
328.18	18532.07
328.39	18575.08
328.60	18603.75
328.81	18530.02
329.02	18515.69
329.23	18865.89
329.45	18882.27
329.66	18788.07
329.87	18919.14
330.08	19009.25
330.29	19044.06
330.50	19248.86
330.71	19199.71
330.92	19459.80
331.13	19787.47
331.34	19816.15
331.56	20207.31
331.77	20577.99
331.98	21552.82
332.19	21704.37
332.40	21907.12
332.61	22136.49
332.82	21759.67
333.03	21214.91
333.24	20670.15
333.45	20172.49
333.67	19586.77
333.88	19408.60
334.09	19283.67
334.30	19527.38
334.51	19453.66
334.72	19234.52
334.93	19519.19
335.14	19482.33
335.35	19312.35
335.56	19293.91
335.77	19437.27
335.98	19390.17
336.19	19697.36
336.41	19459.80
336.62	19728.08
336.83	19603.16
337.04	19201.76
337.25	19480.28
337.46	19478.23
337.67	19445.46
337.88	19306.20
338.09	19406.55
338.30	19257.05
338.51	19721.94
338.72	19087.07
338.93	19570.39
339.14	19381.98
339.35	19816.15
339.57	19322.59
339.78	19476.18
339.99	19637.97
340.20	19918.54
340.41	19693.27
340.62	20076.24
340.83	19713.75
341.04	19343.06
341.25	19343.06
341.46	19582.68
341.67	19334.87
341.88	19379.93
342.09	19584.73
342.30	19375.83
342.51	19728.08
342.72	20092.62
342.93	19367.64
343.14	19896.02
343.35	18945.76
343.56	19840.72
343.77	19324.63
343.98	19285.72
344.19	19900.11
344.41	19199.71
344.62	19322.59
344.83	19416.79
345.04	19363.54
345.25	19627.73
345.46	19519.19
345.67	19631.83
345.88	19367.64
346.09	19506.90
346.30	19732.18
346.51	19664.60
346.72	19416.79
346.93	19842.77
347.14	19363.54
347.35	19654.36
347.56	19283.67
347.77	19721.94
347.98	19642.07
348.19	19343.06
348.40	19424.98
348.61	19570.39
348.82	19193.56
349.03	19181.28
349.24	19211.99
349.45	19154.65
349.66	19277.53
349.87	19232.47
350.08	19195.61
350.29	19451.61
350.50	18869.98
350.71	19033.82
350.92	18693.86
351.13	18759.39
351.34	18915.04
351.55	19197.66
351.76	18564.84
351.97	19252.95
352.18	18886.37
352.39	18769.63
352.60	18720.48
352.81	18657.00
353.02	18792.16
353.23	18636.52
353.44	18507.49
353.65	18949.85
353.86	18396.90
354.07	18573.03
354.28	18587.36
354.49	18659.04
354.70	18648.80
354.90	18704.10
355.11	18601.70
355.32	18890.46
355.53	18681.57
355.74	18548.45
355.95	18251.50
356.16	18454.25
356.37	18288.36
356.58	18525.93
356.79	18288.36
357.00	18636.52
357.21	18626.28
357.42	18874.08
357.63	18456.29
357.84	18429.67
358.05	18446.05
358.26	18755.30
358.47	18927.33
358.68	18845.41
358.89	18452.20
359.10	18253.55
359.31	18349.80
359.52	18458.34
359.73	19117.79
359.93	18888.42
360.14	18673.38
360.35	18984.67
360.56	18919.14
360.77	18775.78
360.98	19087.07
361.19	18900.70
361.40	18747.11
361.61	19082.97
361.82	19160.80
362.03	18921.18
362.24	19105.50
362.45	19035.87
362.66	19179.23
362.87	19269.34
363.07	19171.04
363.28	20039.37
363.49	19132.12
363.70	19304.15
363.91	19015.39
364.12	19142.36
364.33	19168.99
364.54	19795.67
364.75	19797.71
364.96	19386.07
365.17	19508.95
365.38	19537.62
365.58	19742.42
365.79	19416.79
366.00	19500.76
366.21	19810.00
366.42	19691.22
366.63	19781.33
366.84	19797.71
367.05	19914.45
367.26	19650.26
367.47	19613.40
367.67	19810.00
367.88	19592.92
368.09	19898.06
368.30	19838.67
368.51	19635.92
368.72	19713.75
368.93	19551.96
369.14	19748.56
369.35	19269.34
369.56	19537.62
369.76	19455.70
369.97	19424.98
370.18	19300.06
370.39	19570.39
370.60	18994.91
370.81	19707.60
371.02	19164.89
371.23	19562.20
371.43	19046.11
371.64	19451.61
371.85	18894.56
372.06	18738.91
372.27	19803.86
372.48	19162.84
372.69	19117.79
372.90	19408.60
373.10	19042.01
373.31	19330.78
373.52	19361.50
373.73	19631.83
373.94	19306.20
374.15	19699.41
374.36	19336.92
374.56	20029.13
374.77	19345.11
374.98	19504.85
375.19	19723.99
375.40	19609.30
375.61	19482.33
375.82	19736.27
376.02	19375.83
376.23	19840.72
376.44	19625.68
376.65	19588.82
376.86	19590.87
377.07	20201.16
377.28	19832.53
377.48	19963.60
377.69	19871.44
377.90	19812.05
378.11	20305.61
378.32	20066.00
378.53	19687.12
378.73	19973.84
378.94	19918.54
379.15	20053.71
379.36	19533.53
379.57	19846.87
379.78	19844.82
379.98	19443.42
380.19	19220.19
380.40	19541.72
380.61	19007.20
380.82	19488.47
381.03	19140.32
381.23	19736.27
381.44	20068.05
381.65	19611.35
381.86	19556.05
382.07	19214.04
382.27	19576.53
382.48	19082.97
382.69	19193.56
382.90	19072.73
383.11	18847.46
383.32	19381.98
383.52	19334.87
383.73	19160.80
383.94	18906.85
384.15	19351.26
384.36	18851.55
384.56	18722.53
384.77	18810.59
384.98	19187.42
385.19	19486.42
385.40	18403.05
385.60	19076.83
385.81	18605.80
386.02	18851.55
386.23	19252.95
386.43	18738.91
386.64	19726.04
386.85	19429.08
387.06	18996.96
387.27	19453.66
387.47	19418.84
387.68	19259.10
387.89	19685.08
388.10	18446.05
388.31	19519.19
388.51	19519.19
388.72	19115.74
388.93	18386.66
389.14	19033.82
389.34	18925.28
389.55	19052.25
389.76	18489.06
389.97	18691.81
390.18	19066.59
390.38	19293.91
390.59	18845.41
390.80	19168.99
391.01	19179.23
391.21	19451.61
391.42	20256.46
391.63	20156.11
391.84	19625.68
392.04	20090.57
392.25	20410.06
392.46	19879.63
392.67	20289.23
392.87	20123.34
393.08	19130.08
393.29	19605.20
393.50	19183.32
393.70	19570.39
393.91	19123.93
394.12	19402.46
394.33	18812.64
394.53	18761.44
394.74	18403.05
394.95	18638.56
395.16	19255.00
395.36	18153.20
395.57	18673.38
395.78	17999.60
395.99	18446.05
396.19	19351.26
396.40	18773.73
396.61	19363.54
396.81	19025.63
397.02	19445.46
397.23	19668.69
397.44	20342.47
397.64	20022.99
397.85	20633.29
398.06	19955.41
398.27	20213.45
398.47	19898.06
398.68	19599.06
398.89	19185.37
399.09	19611.35
399.30	19001.05
399.51	19072.73
399.72	19203.80
399.92	19347.16
400.13	18579.17
400.34	18704.10
400.54	18757.35
400.75	19330.78
400.96	18650.85
401.17	19322.59
401.37	18728.67
401.58	18724.58
401.79	18624.23
401.99	19101.40
402.20	19113.69
402.41	18470.63
402.61	18532.07
402.82	18540.26
403.03	18751.20
403.24	17891.06
403.44	18581.22
403.65	18378.47
403.86	19037.92
404.06	19410.65
404.27	19187.42
404.48	19164.89
404.68	19128.03
404.89	19185.37
405.10	18835.17
405.30	18966.24
405.51	18573.03
405.72	18667.24
405.92	17991.41
406.13	18331.37
406.34	18198.25
406.54	18437.86
406.75	18431.72
406.96	18224.87
407.16	19162.84
407.37	19031.77
407.58	18849.50
407.78	18937.57
407.99	19166.94
408.20	19642.07
408.40	18892.51
408.61	18523.88
408.82	18685.67
409.02	18394.86
409.23	18720.48
409.44	19105.50
409.64	18179.82
409.85	18319.08
410.06	17690.35
410.26	18484.97
410.47	18530.02
410.68	18054.89
410.88	19408.60
411.09	18964.19
411.30	18693.86
411.50	18568.93
411.71	18816.74
411.91	19052.25
412.12	18681.57
412.33	19037.92
412.53	18175.72
412.74	19056.35
412.95	18599.65
413.15	19554.01
413.36	18810.59
413.57	18769.63
413.77	18022.12
413.98	18751.20
414.18	18790.11
414.39	17997.55
414.60	18372.33
414.80	18851.55
415.01	17950.45
415.22	18407.14
415.42	18069.23
415.63	18099.95
415.83	17932.01
416.04	17882.86
416.25	18063.08
416.45	18487.01
416.66	17989.36
416.86	18407.14
417.07	18611.94
417.28	18575.08
417.48	18138.86
417.69	18388.71
417.89	18534.12
418.10	17932.01
418.31	18419.43
418.51	18669.28
418.72	18616.04
418.92	17684.21
419.13	18544.36
419.34	18671.33
419.54	19359.45
419.75	18620.13
419.95	19308.25
420.16	18984.67
420.37	19322.59
420.57	19934.93
420.78	18855.65
420.98	20188.88
421.19	19965.65
421.40	19341.02
421.60	19676.88
421.81	19390.17
422.01	19097.31
422.22	19283.67
422.42	18859.74
422.63	18704.10
422.84	18265.83
423.04	18259.69
423.25	17921.77
423.45	18208.49
423.66	18478.82
423.86	18507.49
424.07	19115.74
424.28	19424.98
424.48	18620.13
424.69	18491.11
424.89	17932.01
425.10	18419.43
425.30	17960.69
425.51	17649.39
425.72	18251.50
425.92	17409.78
426.13	17508.08
426.33	18220.78
