SpectraSuite Data File
++++++++++++++++++++++++++++++++++++
Date: Fri Jan 24 16:47:50 MST 2020
User: Molly
Dark Spectrum Present: Yes
Reference Spectrum Present: Yes
Number of Sampled Component Spectra: 1
Spectrometers: USB4E03280
Integration Time (usec): 32000 (USB4E03280)
Spectra Averaged: 1 (USB4E03280)
Boxcar Smoothing: 0 (USB4E03280)
Correct for Electrical Dark: No (USB4E03280)
Strobe/Lamp Enabled: Yes (USB4E03280)
Correct for Detector Non-linearity: No (USB4E03280)
Correct for Stray Light: No (USB4E03280)
Number of Pixels in Processed Spectrum: 3648
>>>>>Begin Processed Spectral Data<<<<<
177.66	1097.71
177.88	1097.71
178.10	1097.71
178.32	1165.29
178.54	1261.55
178.76	1239.02
178.98	1218.54
179.19	1216.49
179.41	1191.92
179.63	1216.49
179.85	1222.64
180.07	1275.88
180.29	1284.08
180.51	1222.64
180.72	1202.16
180.94	1257.45
181.16	1279.98
181.38	1304.56
181.60	1243.12
181.82	1282.03
182.04	1259.50
182.25	1179.63
182.47	1251.31
182.69	1288.17
182.91	1230.83
183.13	1222.64
183.35	1257.45
183.56	1282.03
183.78	1265.64
184.00	1202.16
184.22	1265.64
184.44	1247.21
184.66	1228.78
184.87	1216.49
185.09	1226.73
185.31	1243.12
185.53	1277.93
185.75	1202.16
185.97	1173.49
186.18	1165.29
186.40	1206.25
186.62	1220.59
186.84	1200.11
187.06	1157.10
187.28	1243.12
187.49	1243.12
187.71	1296.36
187.93	1294.32
188.15	1191.92
188.37	1232.88
188.59	1214.45
188.80	1239.02
189.02	1204.21
189.24	1277.93
189.46	1232.88
189.68	1206.25
189.89	1196.01
190.11	1163.25
190.33	1333.23
190.55	1282.03
190.77	1245.16
190.98	1232.88
191.20	1200.11
191.42	1300.46
191.64	1269.74
191.86	1214.45
192.07	1230.83
192.29	1234.93
192.51	1271.79
192.73	1247.21
192.95	1300.46
193.16	1183.73
193.38	1314.80
193.60	1255.40
193.82	1261.55
194.04	1167.34
194.25	1320.94
194.47	1241.07
194.69	1277.93
194.91	1228.78
195.13	1263.60
195.34	1187.82
195.56	1275.88
195.78	1171.44
196.00	1267.69
196.22	1234.93
196.43	1261.55
196.65	1245.16
196.87	1253.36
197.09	1220.59
197.30	1261.55
197.52	1273.84
197.74	1273.84
197.96	1220.59
198.18	1234.93
198.39	1210.35
198.61	1263.60
198.83	1288.17
199.05	1200.11
199.26	1275.88
199.48	1247.21
199.70	1232.88
199.92	1208.30
200.13	1247.21
200.35	1236.97
200.57	1193.97
200.79	1251.31
201.00	1189.87
201.22	1212.40
201.44	1316.84
201.66	1263.60
201.88	1251.31
202.09	1161.20
202.31	1269.74
202.53	1288.17
202.75	1179.63
202.96	1245.16
203.18	1269.74
203.40	1202.16
203.62	1267.69
203.83	1361.90
204.05	1277.93
204.27	1251.31
204.49	1187.82
204.70	1210.35
204.92	1214.45
205.14	1312.75
205.35	1218.54
205.57	1234.93
205.79	1253.36
206.01	1208.30
206.22	1220.59
206.44	1310.70
206.66	1167.34
206.88	1290.22
207.09	1288.17
207.31	1275.88
207.53	1228.78
207.75	1236.97
207.96	1247.21
208.18	1279.98
208.40	1177.58
208.61	1300.46
208.83	1261.55
209.05	1296.36
209.27	1234.93
209.48	1247.21
209.70	1275.88
209.92	1251.31
210.14	1232.88
210.35	1253.36
210.57	1261.55
210.79	1294.32
211.00	1220.59
211.22	1273.84
211.44	1189.87
211.66	1193.97
211.87	1241.07
212.09	1222.64
212.31	1243.12
212.52	1267.69
212.74	1181.68
212.96	1243.12
213.17	1204.21
213.39	1267.69
213.61	1292.27
213.83	1150.96
214.04	1275.88
214.26	1247.21
214.48	1294.32
214.69	1247.21
214.91	1288.17
215.13	1265.64
215.34	1202.16
215.56	1230.83
215.78	1290.22
216.00	1269.74
216.21	1226.73
216.43	1165.29
216.65	1191.92
216.86	1292.27
217.08	1271.79
217.30	1261.55
217.51	1230.83
217.73	1226.73
217.95	1296.36
218.16	1327.08
218.38	1208.30
218.60	1292.27
218.81	1241.07
219.03	1261.55
219.25	1316.84
219.46	1236.97
219.68	1187.82
219.90	1265.64
220.11	1331.18
220.33	1212.40
220.55	1304.56
220.76	1279.98
220.98	1222.64
221.20	1282.03
221.41	1282.03
221.63	1263.60
221.85	1322.99
222.06	1284.08
222.28	1222.64
222.50	1208.30
222.71	1183.73
222.93	1224.69
223.15	1234.93
223.36	1265.64
223.58	1251.31
223.80	1279.98
224.01	1232.88
224.23	1363.95
224.45	1253.36
224.66	1175.53
224.88	1191.92
225.10	1216.49
225.31	1267.69
225.53	1259.50
225.75	1193.97
225.96	1234.93
226.18	1230.83
226.39	1200.11
226.61	1173.49
226.83	1247.21
227.04	1279.98
227.26	1298.41
227.48	1294.32
227.69	1279.98
227.91	1245.16
228.13	1271.79
228.34	1275.88
228.56	1318.89
228.77	1259.50
228.99	1214.45
229.21	1226.73
229.42	1196.01
229.64	1265.64
229.86	1236.97
230.07	1294.32
230.29	1282.03
230.50	1216.49
230.72	1230.83
230.94	1241.07
231.15	1273.84
231.37	1292.27
231.58	1286.12
231.80	1257.45
232.02	1253.36
232.23	1200.11
232.45	1282.03
232.67	1236.97
232.88	1245.16
233.10	1312.75
233.31	1243.12
233.53	1247.21
233.75	1234.93
233.96	1214.45
234.18	1210.35
234.39	1243.12
234.61	1292.27
234.83	1314.80
235.04	1206.25
235.26	1239.02
235.47	1177.58
235.69	1163.25
235.91	1228.78
236.12	1236.97
236.34	1273.84
236.55	1208.30
236.77	1290.22
236.99	1204.21
237.20	1255.40
237.42	1191.92
237.63	1302.51
237.85	1241.07
238.06	1263.60
238.28	1171.44
238.50	1245.16
238.71	1208.30
238.93	1228.78
239.14	1325.04
239.36	1253.36
239.58	1148.91
239.79	1279.98
240.01	1271.79
240.22	1179.63
240.44	1306.60
240.65	1218.54
240.87	1224.69
241.09	1208.30
241.30	1288.17
241.52	1230.83
241.73	1241.07
241.95	1216.49
242.16	1224.69
242.38	1275.88
242.59	1275.88
242.81	1337.32
243.03	1253.36
243.24	1228.78
243.46	1259.50
243.67	1253.36
243.89	1273.84
244.10	1210.35
244.32	1243.12
244.53	1245.16
244.75	1308.65
244.97	1204.21
245.18	1241.07
245.40	1339.37
245.61	1239.02
245.83	1230.83
246.04	1228.78
246.26	1191.92
246.47	1212.40
246.69	1224.69
246.90	1198.06
247.12	1243.12
247.34	1230.83
247.55	1257.45
247.77	1314.80
247.98	1255.40
248.20	1230.83
248.41	1210.35
248.63	1255.40
248.84	1243.12
249.06	1214.45
249.27	1279.98
249.49	1232.88
249.70	1202.16
249.92	1247.21
250.13	1257.45
250.35	1245.16
250.56	1232.88
250.78	1261.55
251.00	1267.69
251.21	1275.88
251.43	1245.16
251.64	1267.69
251.86	1232.88
252.07	1236.97
252.29	1288.17
252.50	1290.22
252.72	1269.74
252.93	1261.55
253.15	1316.84
253.36	1210.35
253.58	1306.60
253.79	1239.02
254.01	1282.03
254.22	1241.07
254.44	1185.77
254.65	1243.12
254.87	1243.12
255.08	1245.16
255.30	1288.17
255.51	1163.25
255.73	1273.84
255.94	1257.45
256.16	1279.98
256.37	1222.64
256.59	1249.26
256.80	1232.88
257.02	1228.78
257.23	1191.92
257.45	1257.45
257.66	1214.45
257.88	1228.78
258.09	1212.40
258.31	1308.65
258.52	1216.49
258.74	1253.36
258.95	1263.60
259.16	1234.93
259.38	1222.64
259.59	1314.80
259.81	1214.45
260.02	1279.98
260.24	1196.01
260.45	1259.50
260.67	1259.50
260.88	1302.51
261.10	1292.27
261.31	1241.07
261.53	1286.12
261.74	1267.69
261.96	1228.78
262.17	1269.74
262.39	1318.89
262.60	1294.32
262.81	1310.70
263.03	1296.36
263.24	1234.93
263.46	1302.51
263.67	1212.40
263.89	1333.23
264.10	1210.35
264.32	1226.73
264.53	1234.93
264.75	1290.22
264.96	1214.45
265.17	1245.16
265.39	1249.26
265.60	1255.40
265.82	1200.11
266.03	1253.36
266.25	1286.12
266.46	1148.91
266.68	1224.69
266.89	1206.25
267.10	1253.36
267.32	1306.60
267.53	1296.36
267.75	1247.21
267.96	1294.32
268.18	1306.60
268.39	1292.27
268.61	1224.69
268.82	1247.21
269.03	1286.12
269.25	1290.22
269.46	1263.60
269.68	1292.27
269.89	1191.92
270.11	1284.08
270.32	1316.84
270.53	1267.69
270.75	1339.37
270.96	1226.73
271.18	1279.98
271.39	1284.08
271.60	1296.36
271.82	1284.08
272.03	1257.45
272.25	1261.55
272.46	1302.51
272.68	1228.78
272.89	1214.45
273.10	1259.50
273.32	1267.69
273.53	1312.75
273.75	1204.21
273.96	1222.64
274.17	1267.69
274.39	1292.27
274.60	1210.35
274.82	1267.69
275.03	1331.18
275.24	1257.45
275.46	1251.31
275.67	1298.41
275.89	1226.73
276.10	1263.60
276.31	1273.84
276.53	1298.41
276.74	1247.21
276.96	1187.82
277.17	1271.79
277.38	1255.40
277.60	1337.32
277.81	1236.97
278.02	1255.40
278.24	1222.64
278.45	1224.69
278.67	1210.35
278.88	1320.94
279.09	1251.31
279.31	1265.64
279.52	1216.49
279.73	1236.97
279.95	1267.69
280.16	1200.11
280.38	1300.46
280.59	1282.03
280.80	1304.56
281.02	1228.78
281.23	1243.12
281.44	1267.69
281.66	1255.40
281.87	1271.79
282.09	1378.28
282.30	1290.22
282.51	1269.74
282.73	1189.87
282.94	1302.51
283.15	1179.63
283.37	1239.02
283.58	1255.40
283.79	1208.30
284.01	1222.64
284.22	1306.60
284.43	1322.99
284.65	1271.79
284.86	1216.49
285.07	1290.22
285.29	1273.84
285.50	1239.02
285.72	1255.40
285.93	1234.93
286.14	1286.12
286.36	1312.75
286.57	1288.17
286.78	1239.02
287.00	1214.45
287.21	1337.32
287.42	1316.84
287.64	1275.88
287.85	1331.18
288.06	1304.56
288.28	1243.12
288.49	1257.45
288.70	1308.65
288.92	1353.71
289.13	1345.52
289.34	1322.99
289.56	1265.64
289.77	1320.94
289.98	1396.71
290.19	1294.32
290.41	1388.52
290.62	1314.80
290.83	1343.47
291.05	1351.66
291.26	1257.45
291.47	1312.75
291.69	1419.24
291.90	1349.61
292.11	1329.13
292.33	1343.47
292.54	1298.41
292.75	1355.76
292.97	1304.56
293.18	1402.86
293.39	1394.67
293.60	1415.15
293.82	1398.76
294.03	1388.52
294.24	1499.11
294.46	1441.77
294.67	1513.45
294.88	1472.49
295.10	1484.78
295.31	1488.87
295.52	1523.69
295.73	1525.74
295.95	1603.56
296.16	1632.23
296.37	1562.60
296.59	1654.76
296.80	1572.84
297.01	1642.47
297.22	1656.81
297.44	1677.29
297.65	1662.95
297.86	1679.33
298.08	1654.76
298.29	1746.92
298.50	1748.97
298.71	1720.29
298.93	1751.01
299.14	1724.39
299.35	1865.70
299.56	1763.30
299.78	1839.08
299.99	1834.98
300.20	1820.64
300.42	1812.45
300.63	1789.92
300.84	1828.84
301.05	1902.56
301.27	1847.27
301.48	1892.32
301.69	1986.53
301.90	1896.42
302.12	1837.03
302.33	1964.00
302.54	1894.37
302.75	1951.71
302.97	1961.95
303.18	1947.62
303.39	1935.33
303.60	1908.71
303.82	2039.78
304.03	2011.11
304.24	1982.43
304.45	1957.86
304.67	2054.11
304.88	2039.78
305.09	1959.91
305.30	1988.58
305.52	1982.43
305.73	2052.06
305.94	2058.21
306.15	2047.97
306.37	2164.70
306.58	2101.22
306.79	2109.41
307.00	2185.18
307.22	2127.84
307.43	2113.50
307.64	2082.78
307.85	2150.37
308.06	2115.55
308.28	2138.08
308.49	2125.79
308.70	2201.57
308.91	2170.85
309.13	2166.75
309.34	2158.56
309.55	2244.57
309.76	2265.05
309.97	2224.09
310.19	2207.71
310.40	2220.00
310.61	2197.47
310.82	2236.38
311.04	2138.08
311.25	2252.77
311.46	2289.63
311.67	2230.24
311.88	2271.20
312.10	2287.58
312.31	2326.49
312.52	2359.26
312.73	2269.15
312.94	2265.05
313.16	2318.30
313.37	2273.25
313.58	2267.10
313.79	2389.98
314.00	2322.40
314.22	2383.84
314.43	2385.88
314.64	2230.24
314.85	2299.87
315.06	2297.82
315.27	2406.36
315.49	2400.22
315.70	2406.36
315.91	2486.23
316.12	2408.41
316.33	2394.08
316.55	2453.47
316.76	2469.85
316.97	2490.33
317.18	2500.57
317.39	2463.71
317.60	2480.09
317.82	2443.23
318.03	2535.39
318.24	2475.99
318.45	2580.44
318.66	2506.71
318.88	2564.06
319.09	2600.92
319.30	2502.62
319.51	2535.39
319.72	2504.67
319.93	2633.69
320.15	2576.34
320.36	2553.82
320.57	2602.97
320.78	2641.88
320.99	2666.46
321.20	2576.34
321.41	2516.95
321.63	2600.92
321.84	2695.13
322.05	2602.97
322.26	2703.32
322.47	2764.76
322.68	2619.35
322.90	2686.94
323.11	2656.22
323.32	2658.26
323.53	2727.89
323.74	2641.88
323.95	2680.79
324.16	2707.41
324.38	2721.75
324.59	2787.29
324.80	2840.53
325.01	2746.33
325.22	2742.23
325.43	2693.08
325.64	2707.41
325.85	2715.61
326.07	2609.11
326.28	2678.74
326.49	2666.46
326.70	2731.99
326.91	2721.75
327.12	2631.64
327.33	2594.78
327.54	2738.13
327.76	2619.35
327.97	2781.14
328.18	2719.70
328.39	2707.41
328.60	2795.48
328.81	2693.08
329.02	2676.70
329.23	2697.17
329.45	2709.46
329.66	2787.29
329.87	2713.56
330.08	2826.20
330.29	2766.81
330.50	2764.76
330.71	2897.88
330.92	2811.86
331.13	3043.28
331.34	2965.46
331.56	2967.51
331.77	2938.84
331.98	2996.18
332.19	3069.91
332.40	3012.56
332.61	3078.10
332.82	2955.22
333.03	2912.21
333.24	2924.50
333.45	2908.12
333.67	2869.20
333.88	2820.05
334.09	2910.16
334.30	2858.96
334.51	2926.55
334.72	2809.81
334.93	2869.20
335.14	2877.40
335.35	2861.01
335.56	2871.25
335.77	2987.99
335.98	2875.35
336.19	2871.25
336.41	2957.27
336.62	2883.54
336.83	2914.26
337.04	2889.68
337.25	2932.69
337.46	2953.17
337.67	2820.05
337.88	2842.58
338.09	2887.64
338.30	2938.84
338.51	2998.23
338.72	2885.59
338.93	2856.92
339.14	2944.98
339.35	2938.84
339.57	2899.92
339.78	2844.63
339.99	2922.45
340.20	3041.23
340.41	3008.47
340.62	2967.51
340.83	2977.75
341.04	2965.46
341.25	2895.83
341.46	2932.69
341.67	2967.51
341.88	2932.69
342.09	3022.80
342.30	2979.79
342.51	2965.46
342.72	3063.76
342.93	3076.05
343.14	3074.00
343.35	2973.65
343.56	2996.18
343.77	2971.60
343.98	3125.20
344.19	2936.79
344.41	2967.51
344.62	2953.17
344.83	3012.56
345.04	2994.13
345.25	2959.31
345.46	2961.36
345.67	3053.52
345.88	3151.82
346.09	3069.91
346.30	3022.80
346.51	3016.66
346.72	3026.90
346.93	3047.38
347.14	2967.51
347.35	3078.10
347.56	2893.78
347.77	3035.09
347.98	3098.58
348.19	3088.34
348.40	3055.57
348.61	3041.23
348.82	3026.90
349.03	2979.79
349.24	3059.67
349.45	3110.86
349.66	3143.63
349.87	3065.81
350.08	2953.17
350.29	3123.15
350.50	3053.52
350.71	2924.50
350.92	2998.23
351.13	3010.51
351.34	2979.79
351.55	2983.89
351.76	2904.02
351.97	3098.58
352.18	3076.05
352.39	3030.99
352.60	2971.60
352.81	3022.80
353.02	3055.57
353.23	2930.64
353.44	2949.08
353.65	3002.32
353.86	3151.82
354.07	2926.55
354.28	3065.81
354.49	3084.24
354.70	3018.71
354.90	2957.27
355.11	3131.34
355.32	3016.66
355.53	3106.77
355.74	3127.25
355.95	2992.08
356.16	2981.84
356.37	3084.24
356.58	3039.19
356.79	3078.10
357.00	3108.82
357.21	3100.62
357.42	2983.89
357.63	3080.14
357.84	3098.58
358.05	3112.91
358.26	3076.05
358.47	3061.71
358.68	3133.39
358.89	3102.67
359.10	3123.15
359.31	3033.04
359.52	3020.75
359.73	3102.67
359.93	3086.29
360.14	3125.20
360.35	3108.82
360.56	3108.82
360.77	3092.43
360.98	3170.26
361.19	3182.54
361.40	3129.30
361.61	3330.00
361.82	3272.65
362.03	3243.98
362.24	3096.53
362.45	3133.39
362.66	3203.02
362.87	3121.10
363.07	3145.68
363.28	3170.26
363.49	3076.05
363.70	3239.89
363.91	3094.48
364.12	3114.96
364.33	3317.71
364.54	3200.98
364.75	3317.71
364.96	3358.67
365.17	3252.17
365.38	3280.85
365.58	3188.69
365.79	3375.05
366.00	3311.57
366.21	3241.93
366.42	3264.46
366.63	3250.13
366.84	3264.46
367.05	3389.39
367.26	3409.87
367.47	3268.56
367.67	3377.10
367.88	3338.19
368.09	3387.34
368.30	3276.75
368.51	3354.57
368.72	3336.14
368.93	3280.85
369.14	3383.24
369.35	3381.20
369.56	3248.08
369.76	3315.66
369.97	3293.13
370.18	3231.69
370.39	3504.07
370.60	3332.05
370.81	3364.81
371.02	3254.22
371.23	3330.00
371.43	3301.33
371.64	3348.43
371.85	3373.00
372.06	3321.81
372.27	3332.05
372.48	3385.29
372.69	3297.23
372.90	3381.20
373.10	3151.82
373.31	3373.00
373.52	3360.72
373.73	3473.36
373.94	3336.14
374.15	3344.33
374.36	3377.10
374.56	3497.93
374.77	3293.13
374.98	3411.92
375.19	3403.72
375.40	3389.39
375.61	3393.48
375.82	3409.87
376.02	3381.20
376.23	3418.06
376.44	3422.16
376.65	3383.24
376.86	3547.08
377.07	3489.74
377.28	3428.30
377.48	3538.89
377.69	3545.03
377.90	3489.74
378.11	3565.51
378.32	3489.74
378.53	3598.28
378.73	3373.00
378.94	3370.96
379.15	3573.71
379.36	3581.90
379.57	3438.54
379.78	3516.36
379.98	3526.60
380.19	3461.07
380.40	3448.78
380.61	3467.21
380.82	3403.72
381.03	3516.36
381.23	3506.12
381.44	3567.56
381.65	3616.71
381.86	3545.03
382.07	3368.91
382.27	3489.74
382.48	3481.55
382.69	3411.92
382.90	3583.95
383.11	3491.79
383.32	3622.86
383.52	3536.84
383.73	3338.19
383.94	3393.48
384.15	3497.93
384.36	3434.44
384.56	3614.66
384.77	3481.55
384.98	3618.76
385.19	3467.21
385.40	3401.68
385.60	3444.68
385.81	3424.20
386.02	3532.75
386.23	3477.45
386.43	3461.07
386.64	3497.93
386.85	3614.66
387.06	3538.89
387.27	3639.24
387.47	3565.51
387.68	3680.20
387.89	3659.72
388.10	3370.96
388.31	3583.95
388.51	3545.03
388.72	3614.66
388.93	3463.12
389.14	3502.03
389.34	3569.61
389.55	3532.75
389.76	3493.83
389.97	3516.36
390.18	3678.15
390.38	3592.14
390.59	3643.34
390.80	3456.97
391.01	3600.33
391.21	3844.04
391.42	3719.11
391.63	3753.93
391.84	3702.73
392.04	3715.02
392.25	3682.25
392.46	3545.03
392.67	3792.84
392.87	3801.03
393.08	3690.44
393.29	3686.34
393.50	3694.54
393.70	3590.09
393.91	3667.91
394.12	3534.79
394.33	3520.46
394.53	3502.03
394.74	3459.02
394.95	3512.27
395.16	3563.47
395.36	3710.92
395.57	3516.36
395.78	3428.30
395.99	3542.99
396.19	3706.82
396.40	3626.95
396.61	3669.96
396.81	3504.07
397.02	3684.30
397.23	3672.01
397.44	3809.22
397.64	3717.06
397.85	3772.36
398.06	3776.45
398.27	3731.40
398.47	3794.89
398.68	3721.16
398.89	3639.24
399.09	3770.31
399.30	3663.82
399.51	3577.80
399.72	3618.76
399.92	3721.16
400.13	3647.43
400.34	3653.58
400.54	3657.67
400.75	3665.86
400.96	3653.58
401.17	3633.10
401.37	3585.99
401.58	3688.39
401.79	3588.04
401.99	3719.11
402.20	3583.95
402.41	3491.79
402.61	3545.03
402.82	3665.86
403.03	3743.69
403.24	3588.04
403.44	3676.10
403.65	3579.85
403.86	3745.73
404.06	3770.31
404.27	3729.35
404.48	3780.55
404.68	3723.21
404.89	3647.43
405.10	3762.12
405.30	3710.92
405.51	3553.23
405.72	3528.65
405.92	3575.75
406.13	3512.27
406.34	3624.90
406.54	3678.15
406.75	3514.31
406.96	3604.42
407.16	3717.06
407.37	3690.44
407.58	3690.44
407.78	3704.78
407.99	3645.38
408.20	3751.88
408.40	3704.78
408.61	3676.10
408.82	3694.54
409.02	3817.41
409.23	3561.42
409.44	3635.14
409.64	3573.71
409.85	3514.31
410.06	3682.25
410.26	3676.10
410.47	3536.84
410.68	3667.91
410.88	3766.21
411.09	3758.02
411.30	3768.26
411.50	3829.70
411.71	3729.35
411.91	3727.30
412.12	3731.40
412.33	3801.03
412.53	3737.54
412.74	3801.03
412.95	3641.29
413.15	3784.65
413.36	3694.54
413.57	3696.58
413.77	3698.63
413.98	3741.64
414.18	3772.36
414.39	3663.82
414.60	3653.58
414.80	3805.13
415.01	3571.66
415.22	3862.47
415.42	3682.25
415.63	3751.88
415.83	3620.81
416.04	3592.14
416.25	3577.80
416.45	3663.82
416.66	3647.43
416.86	3643.34
417.07	3850.18
417.28	3659.72
417.48	3751.88
417.69	3758.02
417.89	3629.00
418.10	3641.29
418.31	3768.26
418.51	3764.17
418.72	3780.55
418.92	3583.95
419.13	3688.39
419.34	3770.31
419.54	3835.85
419.75	3723.21
419.95	3895.24
420.16	3733.45
420.37	3803.08
420.57	3977.16
420.78	3833.80
420.98	4048.83
421.19	3954.63
421.40	3835.85
421.60	3942.34
421.81	3913.67
422.01	3823.56
422.22	3942.34
422.42	3760.07
422.63	3803.08
422.84	3725.26
423.04	3633.10
423.25	3612.62
423.45	3727.30
423.66	3852.23
423.86	3706.82
424.07	3891.14
424.28	3944.39
424.48	3821.51
424.69	3698.63
424.89	3874.76
425.10	3923.91
425.30	3706.82
425.51	3637.19
425.72	3819.46
425.92	3801.03
426.13	3708.87
426.33	3622.86
426.54	3981.25
426.74	3852.23
426.95	3743.69
427.15	3741.64
427.36	3809.22
427.56	3784.65
427.77	3788.74
427.98	3770.31
428.18	3780.55
428.39	4026.31
428.59	4001.73
428.80	3930.05
429.00	4112.32
429.21	4143.04
429.41	3975.11
429.62	3940.29
429.82	4280.25
430.03	4061.12
430.23	4001.73
430.44	4095.94
430.65	3977.16
430.85	3993.54
431.06	3827.65
431.26	3897.28
431.47	3684.30
431.67	3948.48
431.88	3866.56
432.08	3692.49
432.29	3770.31
432.49	3772.36
432.70	3794.89
432.90	3735.50
433.11	3807.17
433.31	3872.71
433.52	3880.90
433.72	3708.87
433.93	3768.26
434.13	3839.94
434.34	3844.04
